%% logfile from robot Johanne (48)
% Johanne (48)
%  1    time 0.000 sec
%  2  3 Motor voltage [V] left, right: 3.00 3.00
%  4  5 Wheel velocity [m/s] left, right: -0.0000 -0.0000
%  6  7  8  9 Pose x,y,h,tilt [m,m,rad,rad]: 0 0 0 -0.632273
0.000 3.00 3.00 -0.0000 -0.0000 0.0000 0.0000 0.000000 -0.632273 
0.002 3.00 3.00 -0.0000 -0.0000 0.0000 0.0000 0.000000 -0.632268 
0.004 3.00 3.00 0.0000 -0.0000 0.0002 -0.0000 -0.002591 -0.632266 
0.006 3.00 3.00 0.0000 -0.0000 0.0002 -0.0000 -0.002591 -0.632277 
0.008 3.00 3.00 0.0000 0.0000 0.0004 -0.0000 0.000000 -0.632265 
0.010 3.00 3.00 0.0703 0.0000 0.0008 -0.0000 0.000000 -0.632254 
0.012 3.00 3.00 0.1488 0.0000 0.0010 -0.0000 -0.002591 -0.632257 
0.014 3.00 3.00 0.1619 0.1701 0.0014 -0.0000 -0.002591 -0.632298 
0.016 3.00 3.00 0.1982 0.1706 0.0018 -0.0000 -0.002591 -0.632674 
0.018 3.00 3.00 0.1834 0.1602 0.0022 -0.0000 -0.002591 -0.633514 
0.020 3.00 3.00 0.2105 0.1667 0.0026 -0.0000 -0.002591 -0.634683 
0.022 3.00 3.00 0.1956 0.1612 0.0030 -0.0000 -0.002591 -0.636003 
0.024 2.99 3.00 0.1999 0.1612 0.0032 -0.0000 -0.005182 -0.637517 
0.026 2.99 3.00 0.1869 0.1422 0.0036 -0.0000 -0.005182 -0.639003 
0.028 3.00 3.00 0.1869 0.1216 0.0038 -0.0000 -0.002591 -0.640598 
0.030 2.99 3.00 0.1923 0.1216 0.0040 -0.0000 -0.005182 -0.642485 
0.032 2.99 3.00 0.1872 0.1309 0.0044 -0.0000 -0.005182 -0.643451 
0.034 2.99 3.00 0.2033 0.1494 0.0048 -0.0000 -0.005182 -0.643859 
0.036 2.99 3.01 0.1808 0.1494 0.0050 -0.0000 -0.007773 -0.644086 
0.038 2.99 3.01 0.1819 0.1564 0.0054 -0.0000 -0.007773 -0.644064 
0.040 2.99 3.01 0.1682 0.1600 0.0058 -0.0000 -0.007773 -0.644030 
0.042 2.99 3.01 0.1626 0.1680 0.0062 -0.0000 -0.007773 -0.644063 
0.044 2.99 3.00 0.1581 0.1554 0.0064 -0.0000 -0.005182 -0.644370 
0.046 2.99 3.01 0.1250 0.1554 0.0066 -0.0000 -0.007773 -0.644985 
0.048 2.99 3.00 0.1205 0.1423 0.0068 -0.0000 -0.005182 -0.645973 
0.050 2.99 3.00 0.1176 0.1244 0.0072 -0.0000 -0.005182 -0.647237 
0.052 2.99 3.01 0.1263 0.1244 0.0074 -0.0000 -0.007773 -0.648611 
0.054 2.99 3.01 0.1616 0.1398 0.0078 -0.0000 -0.007773 -0.649764 
0.056 2.99 3.00 0.1616 0.1528 0.0080 -0.0000 -0.005182 -0.650599 
0.058 2.99 3.00 0.1671 0.1639 0.0084 -0.0000 -0.005182 -0.651020 
0.060 2.99 3.01 0.1870 0.1639 0.0086 -0.0000 -0.007773 -0.651212 
0.062 2.99 3.01 0.1791 0.1718 0.0090 -0.0000 -0.007773 -0.651334 
0.064 2.99 3.01 0.1855 0.1753 0.0094 -0.0000 -0.007773 -0.651459 
0.066 2.99 3.01 0.1522 0.1588 0.0098 -0.0000 -0.007773 -0.651677 
0.068 2.99 3.01 0.1518 0.1518 0.0102 -0.0001 -0.007773 -0.652071 
0.070 2.99 3.01 0.1518 0.1518 0.0102 -0.0001 -0.007773 -0.652551 
0.072 2.99 3.01 0.1630 0.1474 0.0106 -0.0001 -0.007773 -0.653009 
0.074 2.99 3.01 0.1961 0.1630 0.0110 -0.0001 -0.007773 -0.653546 
0.076 2.99 3.01 0.2055 0.1940 0.0114 -0.0001 -0.007773 -0.654056 
0.078 2.99 3.01 0.2233 0.2037 0.0120 -0.0001 -0.010364 -0.654568 
0.080 2.99 3.01 0.2286 0.2171 0.0125 -0.0001 -0.010364 -0.655002 
0.082 2.99 3.01 0.2050 0.2290 0.0129 -0.0001 -0.010364 -0.655395 
0.084 2.99 3.01 0.2101 0.2198 0.0133 -0.0001 -0.010364 -0.655896 
0.086 2.99 3.01 0.2021 0.2151 0.0139 -0.0001 -0.007773 -0.656511 
0.088 2.99 3.01 0.2315 0.2122 0.0143 -0.0001 -0.007773 -0.657067 
0.090 2.99 3.01 0.2227 0.2042 0.0147 -0.0001 -0.007773 -0.657736 
0.092 2.99 3.01 0.2475 0.2261 0.0151 -0.0001 -0.007773 -0.658349 
0.094 2.99 3.01 0.2575 0.2618 0.0157 -0.0001 -0.010364 -0.658722 
0.096 2.99 3.01 0.2429 0.2528 0.0161 -0.0001 -0.010364 -0.659033 
0.098 2.99 3.01 0.2745 0.2453 0.0167 -0.0001 -0.007773 -0.659155 
0.100 2.99 3.01 0.2450 0.2371 0.0171 -0.0001 -0.007773 -0.659139 
0.102 2.99 3.01 0.2559 0.2390 0.0177 -0.0001 -0.010364 -0.659122 
0.104 2.99 3.01 0.2885 0.2523 0.0181 -0.0001 -0.010364 -0.659206 
0.106 2.99 3.01 0.2611 0.2444 0.0185 -0.0001 -0.010364 -0.659365 
0.108 2.99 3.01 0.2498 0.2647 0.0193 -0.0001 -0.010364 -0.659712 
0.110 2.99 3.01 0.2625 0.2734 0.0197 -0.0001 -0.010364 -0.660175 
0.112 2.99 3.01 0.2526 0.2675 0.0201 -0.0001 -0.010364 -0.660764 
0.114 2.99 3.01 0.2733 0.2725 0.0209 -0.0001 -0.010364 -0.661337 
0.116 2.99 3.01 0.3130 0.2803 0.0213 -0.0002 -0.010364 -0.661766 
0.118 2.99 3.01 0.2916 0.2815 0.0219 -0.0002 -0.012956 -0.662168 
0.120 2.99 3.01 0.2724 0.3069 0.0225 -0.0002 -0.010364 -0.662524 
0.122 2.99 3.01 0.2828 0.3057 0.0231 -0.0002 -0.007773 -0.662995 
0.124 2.99 3.01 0.3247 0.2888 0.0237 -0.0002 -0.010364 -0.663448 
0.126 2.99 3.01 0.3075 0.3068 0.0243 -0.0002 -0.007773 -0.663750 
0.128 2.99 3.01 0.3255 0.3017 0.0249 -0.0002 -0.010364 -0.663928 
0.130 2.99 3.01 0.3194 0.3191 0.0257 -0.0002 -0.010364 -0.663978 
0.132 2.99 3.01 0.3329 0.3130 0.0261 -0.0002 -0.010364 -0.664181 
0.134 2.99 3.01 0.3357 0.2936 0.0269 -0.0002 -0.010364 -0.664549 
0.136 2.99 3.01 0.3349 0.3145 0.0275 -0.0002 -0.012956 -0.664815 
0.138 2.99 3.01 0.3219 0.3163 0.0281 -0.0002 -0.010364 -0.665260 
0.140 2.99 3.01 0.3148 0.3204 0.0287 -0.0002 -0.012956 -0.665676 
0.142 2.99 3.01 0.3225 0.3191 0.0293 -0.0002 -0.010364 -0.666224 
0.144 2.99 3.01 0.3450 0.3391 0.0301 -0.0002 -0.010364 -0.666812 
0.146 2.99 3.01 0.3760 0.3418 0.0307 -0.0003 -0.012956 -0.667288 
0.148 2.99 3.01 0.3917 0.3471 0.0315 -0.0003 -0.012956 -0.667619 
0.150 2.99 3.01 0.3929 0.3612 0.0323 -0.0003 -0.012956 -0.667834 
0.152 2.99 3.01 0.4180 0.3596 0.0331 -0.0003 -0.012956 -0.668008 
0.154 2.99 3.01 0.4042 0.3586 0.0339 -0.0003 -0.012956 -0.668079 
0.156 2.98 3.02 0.3945 0.3326 0.0345 -0.0003 -0.015547 -0.668294 
0.158 2.98 3.02 0.4162 0.3902 0.0353 -0.0003 -0.015547 -0.668498 
0.160 2.99 3.01 0.3629 0.3536 0.0359 -0.0003 -0.012956 -0.669041 
0.162 2.99 3.01 0.3641 0.3596 0.0367 -0.0003 -0.012956 -0.669721 
0.164 2.99 3.01 0.3741 0.3947 0.0376 -0.0003 -0.012956 -0.670497 
0.166 2.99 3.01 0.3784 0.3771 0.0384 -0.0004 -0.012956 -0.671195 
0.168 2.99 3.01 0.3836 0.4039 0.0392 -0.0004 -0.012956 -0.671867 
0.170 2.98 3.02 0.3960 0.3947 0.0398 -0.0004 -0.015547 -0.672211 
0.172 2.98 3.02 0.4039 0.3986 0.0406 -0.0004 -0.015547 -0.672347 
0.174 2.98 3.02 0.3981 0.3956 0.0414 -0.0004 -0.015547 -0.672421 
0.176 2.98 3.02 0.3908 0.4022 0.0422 -0.0004 -0.015547 -0.672443 
0.178 2.98 3.02 0.3898 0.3936 0.0430 -0.0004 -0.015547 -0.672615 
0.180 2.98 3.02 0.3965 0.3905 0.0438 -0.0004 -0.015547 -0.672817 
0.182 2.98 3.02 0.3941 0.3916 0.0446 -0.0005 -0.015547 -0.673097 
0.184 2.98 3.02 0.3933 0.4074 0.0454 -0.0005 -0.015547 -0.673447 
0.186 2.98 3.02 0.4078 0.4126 0.0464 -0.0005 -0.018138 -0.674000 
0.188 2.98 3.02 0.4673 0.4241 0.0472 -0.0005 -0.018138 -0.674467 
0.190 2.98 3.02 0.4358 0.4262 0.0480 -0.0005 -0.018138 -0.674706 
0.192 2.98 3.02 0.4504 0.4121 0.0490 -0.0005 -0.015547 -0.674764 
0.194 2.98 3.02 0.4558 0.4358 0.0498 -0.0005 -0.015547 -0.674855 
0.196 2.98 3.02 0.4566 0.4500 0.0506 -0.0005 -0.015547 -0.674876 
0.198 2.98 3.02 0.4270 0.4188 0.0516 -0.0006 -0.018138 -0.675025 
0.200 2.98 3.02 0.4288 0.4134 0.0524 -0.0006 -0.018138 -0.675237 
0.202 2.98 3.02 0.4364 0.4304 0.0532 -0.0006 -0.018138 -0.675501 
0.204 2.98 3.02 0.4395 0.4075 0.0540 -0.0006 -0.018138 -0.676007 
0.206 2.98 3.02 0.4634 0.4617 0.0552 -0.0006 -0.018138 -0.676478 
0.208 2.98 3.02 0.5102 0.4652 0.0560 -0.0006 -0.018138 -0.677049 
0.210 2.98 3.02 0.4630 0.4696 0.0568 -0.0007 -0.018138 -0.677361 
0.212 2.98 3.02 0.4547 0.4559 0.0580 -0.0007 -0.018138 -0.677762 
0.214 2.98 3.02 0.4541 0.4741 0.0588 -0.0007 -0.018138 -0.677897 
0.216 2.98 3.02 0.4514 0.4409 0.0596 -0.0007 -0.018138 -0.677971 
0.218 2.98 3.02 0.4507 0.4536 0.0606 -0.0007 -0.020729 -0.678092 
0.220 2.98 3.02 0.4909 0.4602 0.0616 -0.0008 -0.018138 -0.678094 
0.222 2.98 3.02 0.4655 0.4551 0.0624 -0.0008 -0.018138 -0.678149 
0.224 2.98 3.02 0.4616 0.4565 0.0635 -0.0008 -0.020729 -0.678062 
0.226 2.98 3.02 0.4574 0.4541 0.0643 -0.0008 -0.020729 -0.677967 
0.228 2.98 3.02 0.4641 0.4636 0.0653 -0.0008 -0.018138 -0.677867 
0.230 2.98 3.02 0.5131 0.4419 0.0663 -0.0008 -0.020729 -0.677716 
0.232 2.98 3.02 0.4733 0.4796 0.0671 -0.0009 -0.020729 -0.677569 
0.234 2.98 3.02 0.4696 0.4941 0.0683 -0.0009 -0.020729 -0.677387 
0.236 2.98 3.02 0.4838 0.4861 0.0691 -0.0009 -0.020729 -0.677260 
0.238 2.98 3.02 0.4917 0.5170 0.0703 -0.0009 -0.020729 -0.677284 
0.240 2.98 3.02 0.5553 0.4852 0.0711 -0.0009 -0.020729 -0.677478 
0.242 2.98 3.02 0.5120 0.4967 0.0723 -0.0010 -0.020729 -0.677808 
0.244 2.98 3.02 0.5105 0.5098 0.0731 -0.0010 -0.020729 -0.678075 
0.246 2.98 3.02 0.5211 0.5536 0.0743 -0.0010 -0.020729 -0.678424 
0.248 2.98 3.02 0.5112 0.5087 0.0753 -0.0010 -0.023320 -0.678832 
0.250 2.98 3.02 0.5084 0.5246 0.0763 -0.0011 -0.020729 -0.679143 
0.252 2.98 3.02 0.5778 0.5115 0.0773 -0.0011 -0.023320 -0.679455 
0.254 2.98 3.02 0.5236 0.5298 0.0785 -0.0011 -0.023320 -0.679831 
0.256 2.98 3.02 0.5245 0.5229 0.0795 -0.0011 -0.020729 -0.680078 
0.258 2.98 3.02 0.5808 0.5091 0.0805 -0.0011 -0.023320 -0.680313 
0.260 2.98 3.02 0.5283 0.5381 0.0817 -0.0012 -0.023320 -0.680771 
0.262 2.98 3.02 0.5256 0.4982 0.0825 -0.0012 -0.023320 -0.680931 
0.264 2.98 3.02 0.5626 0.5120 0.0837 -0.0012 -0.023320 -0.681052 
0.266 2.97 3.02 0.5244 0.5342 0.0847 -0.0012 -0.025911 -0.681170 
0.268 2.98 3.02 0.5282 0.4827 0.0857 -0.0013 -0.023320 -0.681033 
0.270 2.98 3.02 0.5664 0.5196 0.0869 -0.0013 -0.023320 -0.680965 
0.272 2.97 3.02 0.5431 0.5453 0.0879 -0.0013 -0.025911 -0.681107 
0.274 2.97 3.02 0.5719 0.5344 0.0891 -0.0014 -0.025911 -0.680990 
0.276 2.98 3.02 0.5757 0.5409 0.0902 -0.0014 -0.023320 -0.681210 
0.278 2.97 3.02 0.5522 0.5490 0.0912 -0.0014 -0.025911 -0.681467 
0.280 2.97 3.02 0.6198 0.5436 0.0924 -0.0014 -0.025911 -0.681654 
0.282 2.97 3.02 0.5583 0.5429 0.0936 -0.0015 -0.025911 -0.681914 
0.284 2.97 3.02 0.5613 0.5505 0.0948 -0.0015 -0.025911 -0.682203 
0.286 2.97 3.03 0.5603 0.5369 0.0958 -0.0015 -0.028502 -0.682464 
0.288 2.97 3.03 0.6200 0.5515 0.0970 -0.0016 -0.028502 -0.682780 
0.290 2.97 3.03 0.5594 0.5792 0.0982 -0.0016 -0.028502 -0.683337 
0.292 2.97 3.02 0.5596 0.5592 0.0992 -0.0016 -0.025911 -0.683703 
0.294 2.97 3.03 0.5767 0.5455 0.1002 -0.0016 -0.028502 -0.684023 
0.296 2.97 3.03 0.5683 0.5760 0.1014 -0.0017 -0.028502 -0.684310 
0.298 2.97 3.03 0.6156 0.5605 0.1026 -0.0017 -0.028502 -0.684344 
0.300 2.97 3.03 0.5707 0.5295 0.1038 -0.0018 -0.028502 -0.684218 
0.302 2.97 3.03 0.5783 0.5640 0.1048 -0.0018 -0.031093 -0.684265 
0.304 2.97 3.03 0.5685 0.5731 0.1060 -0.0018 -0.031093 -0.684242 
0.306 2.97 3.03 0.6166 0.5538 0.1072 -0.0019 -0.031093 -0.684159 
0.308 2.97 3.03 0.5862 0.5738 0.1084 -0.0019 -0.031093 -0.684304 
0.310 2.97 3.03 0.6224 0.6145 0.1096 -0.0019 -0.031093 -0.684351 
0.312 2.97 3.03 0.6001 0.5818 0.1106 -0.0020 -0.028502 -0.684445 
0.314 2.97 3.03 0.6157 0.5786 0.1116 -0.0020 -0.031093 -0.684702 
0.316 2.97 3.03 0.5975 0.5571 0.1128 -0.0020 -0.031093 -0.685110 
0.318 2.97 3.03 0.6310 0.5931 0.1140 -0.0021 -0.031093 -0.685425 
0.320 2.97 3.03 0.5966 0.5665 0.1152 -0.0021 -0.031093 -0.685804 
0.322 2.97 3.03 0.6405 0.5873 0.1164 -0.0021 -0.031093 -0.686257 
0.324 2.97 3.03 0.6005 0.6062 0.1179 -0.0022 -0.033685 -0.686406 
0.326 2.97 3.03 0.6019 0.5889 0.1191 -0.0022 -0.033685 -0.686605 
0.328 2.97 3.03 0.6329 0.5488 0.1203 -0.0023 -0.033685 -0.686860 
0.330 2.97 3.03 0.5944 0.5912 0.1215 -0.0023 -0.033685 -0.687028 
0.332 2.97 3.03 0.6571 0.6184 0.1227 -0.0023 -0.033685 -0.686951 
0.334 2.97 3.03 0.5975 0.6000 0.1239 -0.0024 -0.033685 -0.686830 
0.336 2.96 3.04 0.6392 0.5713 0.1249 -0.0024 -0.036276 -0.686827 
0.338 2.96 3.04 0.6109 0.6136 0.1261 -0.0025 -0.036276 -0.686729 
0.340 2.96 3.04 0.6848 0.6105 0.1273 -0.0025 -0.036276 -0.686698 
0.342 2.96 3.04 0.6195 0.6137 0.1285 -0.0026 -0.036276 -0.687090 
0.344 2.96 3.04 0.6180 0.5930 0.1301 -0.0026 -0.036276 -0.687356 
0.346 2.96 3.04 0.6855 0.6076 0.1313 -0.0027 -0.036276 -0.687615 
0.348 2.96 3.04 0.6239 0.5732 0.1325 -0.0027 -0.036276 -0.687835 
0.350 2.96 3.04 0.7156 0.6136 0.1337 -0.0027 -0.036276 -0.687908 
0.352 2.96 3.04 0.6269 0.5907 0.1349 -0.0028 -0.036276 -0.687986 
0.354 2.96 3.04 0.6181 0.6094 0.1363 -0.0028 -0.038867 -0.688005 
0.356 2.96 3.04 0.6312 0.6362 0.1375 -0.0029 -0.038867 -0.688209 
0.358 2.96 3.04 0.6213 0.6144 0.1387 -0.0029 -0.038867 -0.688634 
0.360 2.96 3.04 0.6756 0.5722 0.1399 -0.0030 -0.038867 -0.688625 
0.362 2.96 3.04 0.6262 0.6227 0.1411 -0.0030 -0.038867 -0.688789 
0.364 2.96 3.04 0.6273 0.6519 0.1425 -0.0031 -0.041458 -0.688891 
0.366 2.96 3.04 0.6622 0.6226 0.1437 -0.0031 -0.041458 -0.688899 
0.368 2.96 3.04 0.6355 0.5750 0.1449 -0.0032 -0.041458 -0.689220 
0.370 2.96 3.04 0.7214 0.6193 0.1461 -0.0032 -0.041458 -0.689686 
0.372 2.96 3.04 0.6881 0.6101 0.1476 -0.0033 -0.044049 -0.689695 
0.374 2.96 3.04 0.6573 0.6346 0.1490 -0.0034 -0.041458 -0.689871 
0.376 2.96 3.04 0.7172 0.6397 0.1502 -0.0034 -0.041458 -0.690024 
0.378 2.96 3.04 0.6845 0.6391 0.1516 -0.0035 -0.044049 -0.690086 
0.380 2.96 3.04 0.6433 0.6375 0.1528 -0.0035 -0.044049 -0.690477 
0.382 2.96 3.04 0.6891 0.6353 0.1540 -0.0036 -0.044049 -0.691101 
0.384 2.95 3.05 0.7208 0.6471 0.1554 -0.0036 -0.046640 -0.691431 
0.386 2.96 3.04 0.6470 0.6444 0.1568 -0.0037 -0.044049 -0.691751 
0.388 2.96 3.04 0.6786 0.6106 0.1580 -0.0038 -0.044049 -0.691996 
0.390 2.95 3.05 0.6685 0.6341 0.1594 -0.0038 -0.046640 -0.692110 
0.392 2.95 3.05 0.6389 0.6632 0.1606 -0.0039 -0.046640 -0.692230 
0.394 2.95 3.05 0.6902 0.6347 0.1618 -0.0039 -0.046640 -0.692217 
0.396 2.95 3.05 0.6985 0.6042 0.1632 -0.0040 -0.049231 -0.692097 
0.398 2.95 3.05 0.6574 0.5908 0.1646 -0.0041 -0.046640 -0.692039 
0.400 2.95 3.05 0.6866 0.6403 0.1658 -0.0041 -0.046640 -0.691935 
0.402 2.95 3.05 0.7398 0.6314 0.1672 -0.0042 -0.049231 -0.691917 
0.404 2.95 3.05 0.6624 0.6613 0.1684 -0.0042 -0.049231 -0.692090 
0.406 2.95 3.05 0.6777 0.6366 0.1696 -0.0043 -0.049231 -0.692459 
0.408 2.95 3.05 0.7643 0.6516 0.1712 -0.0044 -0.049231 -0.692709 
0.410 2.95 3.05 0.6669 0.6407 0.1724 -0.0044 -0.049231 -0.692705 
0.412 2.95 3.05 0.6538 0.6375 0.1738 -0.0045 -0.051822 -0.692537 
0.414 2.95 3.05 0.6674 0.6529 0.1750 -0.0046 -0.051822 -0.692370 
0.416 2.95 3.05 0.6550 0.6519 0.1764 -0.0046 -0.049231 -0.692353 
0.418 2.95 3.05 0.6562 0.6222 0.1778 -0.0047 -0.051822 -0.692406 
0.420 2.95 3.05 0.7350 0.6457 0.1790 -0.0048 -0.051822 -0.692128 
0.422 2.94 3.05 0.7051 0.6749 0.1804 -0.0049 -0.054414 -0.691735 
0.424 2.95 3.05 0.6639 0.6855 0.1819 -0.0049 -0.051822 -0.691398 
0.426 2.95 3.05 0.6947 0.6569 0.1831 -0.0050 -0.051822 -0.691097 
0.428 2.94 3.05 0.7091 0.6167 0.1845 -0.0051 -0.054414 -0.691005 
0.430 2.94 3.06 0.6854 0.6708 0.1859 -0.0051 -0.057005 -0.690777 
0.432 2.94 3.05 0.6803 0.6731 0.1873 -0.0052 -0.054414 -0.690721 
0.434 2.94 3.05 0.6844 0.7240 0.1885 -0.0053 -0.054414 -0.690669 
0.436 2.94 3.06 0.7754 0.6853 0.1899 -0.0054 -0.057005 -0.690950 
0.438 2.94 3.05 0.6796 0.6820 0.1913 -0.0054 -0.054414 -0.691602 
0.440 2.94 3.06 0.6873 0.7361 0.1927 -0.0055 -0.057005 -0.692122 
0.442 2.94 3.05 0.6981 0.6665 0.1941 -0.0056 -0.054414 -0.692833 
0.444 2.94 3.06 0.7204 0.6809 0.1955 -0.0057 -0.057005 -0.693301 
0.446 2.94 3.06 0.6746 0.6986 0.1967 -0.0058 -0.057005 -0.693734 
0.448 2.94 3.06 0.6750 0.6897 0.1983 -0.0058 -0.057005 -0.694057 
0.450 2.94 3.06 0.7244 0.6841 0.1995 -0.0059 -0.057005 -0.694156 
0.452 2.94 3.06 0.7321 0.6408 0.2009 -0.0060 -0.059596 -0.693873 
0.454 2.94 3.06 0.6860 0.6341 0.2023 -0.0061 -0.057005 -0.693411 
0.456 2.94 3.06 0.6842 0.6630 0.2037 -0.0062 -0.059596 -0.692865 
0.458 2.94 3.06 0.7484 0.6810 0.2049 -0.0062 -0.059596 -0.692510 
0.460 2.94 3.06 0.7487 0.6534 0.2065 -0.0063 -0.059596 -0.692171 
0.462 2.94 3.06 0.6930 0.6848 0.2077 -0.0064 -0.059596 -0.692148 
0.464 2.94 3.06 0.6922 0.6687 0.2091 -0.0065 -0.062187 -0.691930 
0.466 2.94 3.06 0.6904 0.6939 0.2107 -0.0066 -0.062187 -0.691871 
0.468 2.94 3.06 0.7661 0.6850 0.2119 -0.0067 -0.062187 -0.691916 
0.470 2.94 3.06 0.7540 0.6990 0.2135 -0.0068 -0.062187 -0.692049 
0.472 2.94 3.06 0.6980 0.7432 0.2147 -0.0068 -0.062187 -0.692447 
0.474 2.94 3.06 0.7079 0.7245 0.2163 -0.0069 -0.062187 -0.692813 
0.476 2.94 3.06 0.7104 0.7109 0.2177 -0.0070 -0.064778 -0.692750 
0.478 2.94 3.06 0.7409 0.6988 0.2191 -0.0071 -0.062187 -0.692684 
0.480 2.94 3.06 0.7355 0.6666 0.2205 -0.0072 -0.064778 -0.692653 
0.482 2.94 3.06 0.7119 0.6634 0.2219 -0.0073 -0.062187 -0.692563 
0.484 2.94 3.06 0.7179 0.6956 0.2233 -0.0074 -0.064778 -0.692687 
0.486 2.93 3.07 0.7145 0.7184 0.2247 -0.0075 -0.067369 -0.692396 
0.488 2.94 3.06 0.7144 0.6764 0.2262 -0.0076 -0.064778 -0.692225 
0.490 2.93 3.07 0.7501 0.7069 0.2276 -0.0077 -0.067369 -0.691921 
0.492 2.93 3.07 0.7456 0.7073 0.2292 -0.0078 -0.067369 -0.691681 
0.494 2.93 3.07 0.7022 0.7002 0.2304 -0.0079 -0.067369 -0.691821 
0.496 2.93 3.07 0.7040 0.7666 0.2320 -0.0080 -0.067369 -0.691608 
0.498 2.94 3.06 0.7319 0.7081 0.2334 -0.0081 -0.064778 -0.691395 
0.500 2.93 3.07 0.7286 0.7245 0.2348 -0.0081 -0.067369 -0.691537 
0.502 3.93 4.07 0.7170 0.7268 0.2364 -0.0083 -0.067369 -0.691928 
0.504 3.93 4.07 0.7270 0.7601 0.2376 -0.0083 -0.067369 -0.692294 
0.506 3.93 4.07 0.7540 0.7862 0.2392 -0.0084 -0.067369 -0.692117 
0.508 3.93 4.07 0.7673 0.7915 0.2408 -0.0086 -0.067369 -0.691769 
0.510 3.93 4.07 0.7712 0.7521 0.2424 -0.0087 -0.067369 -0.691525 
0.512 3.93 4.07 0.7750 0.7586 0.2438 -0.0088 -0.069960 -0.691223 
0.514 3.93 4.07 0.7779 0.7677 0.2454 -0.0089 -0.069960 -0.691331 
0.516 3.93 4.07 0.7806 0.7749 0.2470 -0.0090 -0.069960 -0.691356 
0.518 3.93 4.07 0.7779 0.7836 0.2486 -0.0091 -0.069960 -0.691454 
0.520 3.93 4.07 0.7728 0.7858 0.2502 -0.0092 -0.069960 -0.691747 
0.522 3.93 4.07 0.7821 0.8010 0.2518 -0.0093 -0.069960 -0.692082 
0.524 3.93 4.07 0.7819 0.7892 0.2534 -0.0094 -0.069960 -0.692778 
0.526 3.93 4.07 0.7842 0.7858 0.2550 -0.0095 -0.069960 -0.693304 
0.528 3.93 4.07 0.7814 0.7871 0.2566 -0.0097 -0.069960 -0.693960 
0.530 3.93 4.07 0.7836 0.7417 0.2582 -0.0098 -0.069960 -0.694551 
0.532 3.93 4.07 0.7979 0.7893 0.2598 -0.0099 -0.069960 -0.694950 
0.534 3.93 4.07 0.8396 0.7964 0.2616 -0.0100 -0.072551 -0.695418 
0.536 3.93 4.07 0.8354 0.7799 0.2632 -0.0101 -0.072551 -0.695450 
0.538 3.93 4.07 0.8125 0.8168 0.2648 -0.0102 -0.072551 -0.695706 
0.540 3.93 4.07 0.8243 0.8117 0.2664 -0.0104 -0.072551 -0.695626 
0.542 3.93 4.07 0.7987 0.8124 0.2680 -0.0105 -0.072551 -0.695688 
0.544 3.93 4.07 0.7985 0.8145 0.2696 -0.0106 -0.072551 -0.695645 
0.546 3.93 4.07 0.8086 0.8345 0.2712 -0.0107 -0.072551 -0.695642 
0.548 3.93 4.07 0.8019 0.8089 0.2728 -0.0108 -0.072551 -0.695690 
0.550 3.93 4.07 0.7998 0.8046 0.2744 -0.0109 -0.072551 -0.695881 
0.552 3.93 4.07 0.8163 0.8040 0.2760 -0.0111 -0.072551 -0.696281 
0.554 3.93 4.07 0.8164 0.8053 0.2776 -0.0112 -0.072551 -0.696659 
0.556 3.93 4.07 0.8396 0.8127 0.2792 -0.0113 -0.072551 -0.697063 
0.558 3.93 4.07 0.8384 0.8259 0.2812 -0.0114 -0.072551 -0.697490 
0.560 3.93 4.07 0.8396 0.8282 0.2828 -0.0116 -0.072551 -0.697614 
0.562 3.93 4.07 0.8299 0.8184 0.2844 -0.0117 -0.072551 -0.697579 
0.564 3.93 4.07 0.8431 0.8578 0.2860 -0.0118 -0.072551 -0.697370 
0.566 3.93 4.07 0.8209 0.8151 0.2876 -0.0119 -0.072551 -0.697128 
0.568 3.92 4.08 0.8395 0.7786 0.2895 -0.0120 -0.075143 -0.696785 
0.570 3.92 4.08 0.8479 0.8215 0.2911 -0.0122 -0.075143 -0.696461 
0.572 3.92 4.08 0.8545 0.8514 0.2927 -0.0123 -0.075143 -0.696281 
0.574 3.92 4.08 0.8459 0.8371 0.2943 -0.0124 -0.075143 -0.695996 
0.576 3.93 4.07 0.8524 0.8444 0.2961 -0.0125 -0.072551 -0.695947 
0.578 3.93 4.07 0.8793 0.8549 0.2977 -0.0126 -0.072551 -0.695931 
0.580 3.92 4.08 0.8492 0.8653 0.2995 -0.0128 -0.075143 -0.696505 
0.582 3.92 4.08 0.8588 0.8593 0.3011 -0.0129 -0.075143 -0.696944 
0.584 3.93 4.07 0.8555 0.8561 0.3029 -0.0130 -0.072551 -0.697678 
0.586 3.92 4.08 0.9065 0.8561 0.3047 -0.0132 -0.075143 -0.698114 
0.588 3.92 4.08 0.8684 0.8658 0.3063 -0.0133 -0.075143 -0.698511 
0.590 3.92 4.08 0.8683 0.8644 0.3083 -0.0134 -0.075143 -0.699031 
0.592 3.92 4.08 0.8735 0.8872 0.3099 -0.0136 -0.075143 -0.699217 
0.594 3.92 4.08 0.8728 0.8689 0.3115 -0.0137 -0.075143 -0.699459 
0.596 3.92 4.08 0.8947 0.8820 0.3135 -0.0138 -0.075143 -0.699543 
0.598 3.92 4.08 0.9065 0.8746 0.3151 -0.0140 -0.075143 -0.699696 
0.600 3.92 4.08 0.9023 0.8707 0.3169 -0.0141 -0.077734 -0.699769 
0.602 3.92 4.08 0.8936 0.8761 0.3187 -0.0142 -0.075143 -0.699764 
0.604 3.92 4.08 0.9267 0.8672 0.3205 -0.0144 -0.077734 -0.699740 
0.606 3.92 4.08 0.9092 0.8644 0.3221 -0.0145 -0.077734 -0.699804 
0.608 3.92 4.08 0.9092 0.8656 0.3239 -0.0146 -0.080325 -0.699772 
0.610 3.92 4.08 0.8898 0.8727 0.3257 -0.0148 -0.077734 -0.699706 
0.612 3.92 4.08 0.9183 0.8830 0.3275 -0.0149 -0.080325 -0.699957 
0.614 3.92 4.08 0.9291 0.9017 0.3293 -0.0151 -0.077734 -0.700068 
0.616 3.92 4.08 0.9057 0.8851 0.3311 -0.0152 -0.080325 -0.700366 
0.618 3.92 4.08 0.9015 0.9047 0.3329 -0.0154 -0.077734 -0.700693 
0.620 3.92 4.08 0.9087 0.9032 0.3347 -0.0155 -0.080325 -0.701231 
0.622 3.92 4.08 0.9095 0.9034 0.3365 -0.0156 -0.082916 -0.701744 
0.624 3.92 4.08 0.9267 0.9023 0.3383 -0.0158 -0.080325 -0.702417 
0.626 3.92 4.08 0.9186 0.8936 0.3401 -0.0159 -0.082916 -0.702693 
0.628 3.92 4.08 0.9567 0.8881 0.3419 -0.0161 -0.080325 -0.702750 
0.630 3.92 4.08 0.9185 0.8931 0.3437 -0.0162 -0.082916 -0.702571 
0.632 3.92 4.08 0.9122 0.9072 0.3457 -0.0164 -0.082916 -0.702402 
0.634 3.92 4.08 0.9253 0.9008 0.3473 -0.0165 -0.082916 -0.702250 
0.636 3.92 4.08 0.9073 0.9121 0.3493 -0.0167 -0.082916 -0.702226 
0.638 3.92 4.08 0.8996 0.9284 0.3509 -0.0168 -0.082916 -0.702455 
0.640 3.92 4.08 0.9400 0.9048 0.3529 -0.0170 -0.082916 -0.702535 
0.642 3.91 4.08 0.9315 0.9016 0.3547 -0.0172 -0.085507 -0.702698 
0.644 3.91 4.08 0.9214 0.8928 0.3563 -0.0173 -0.085507 -0.702787 
0.646 3.91 4.08 0.9470 0.8868 0.3583 -0.0175 -0.085507 -0.702906 
0.648 3.91 4.08 0.9113 0.8779 0.3603 -0.0176 -0.085507 -0.703217 
0.650 3.91 4.08 0.9275 0.9148 0.3619 -0.0178 -0.085507 -0.703328 
0.652 3.91 4.08 0.9572 0.9634 0.3639 -0.0180 -0.085507 -0.703295 
0.654 3.91 4.08 0.9404 0.9219 0.3655 -0.0181 -0.085507 -0.703781 
0.656 3.91 4.08 0.9235 0.9140 0.3675 -0.0183 -0.085507 -0.703954 
0.658 3.91 4.08 0.9143 0.9150 0.3695 -0.0184 -0.085507 -0.704470 
0.660 3.91 4.08 0.9303 0.9195 0.3711 -0.0186 -0.085507 -0.704685 
0.662 3.91 4.08 0.9124 0.9216 0.3731 -0.0187 -0.085507 -0.705086 
0.664 3.91 4.08 0.9391 0.9254 0.3751 -0.0189 -0.085507 -0.705138 
0.666 3.91 4.08 0.9424 0.9535 0.3767 -0.0190 -0.085507 -0.705316 
0.668 3.91 4.08 0.9172 0.9331 0.3787 -0.0192 -0.085507 -0.705024 
0.670 3.91 4.09 0.9640 0.9313 0.3805 -0.0194 -0.088098 -0.705053 
0.672 3.91 4.08 0.9254 0.9256 0.3823 -0.0195 -0.085507 -0.704643 
0.674 3.91 4.08 0.9199 0.9319 0.3843 -0.0197 -0.085507 -0.704548 
0.676 3.91 4.09 0.9649 0.9339 0.3861 -0.0199 -0.088098 -0.704396 
0.678 3.91 4.08 0.9693 0.9454 0.3879 -0.0200 -0.085507 -0.704487 
0.680 3.91 4.08 0.9314 0.9570 0.3899 -0.0202 -0.085507 -0.704665 
0.682 3.91 4.09 0.9467 0.9524 0.3917 -0.0203 -0.088098 -0.705024 
0.684 3.91 4.08 0.9561 0.9114 0.3935 -0.0205 -0.085507 -0.705024 
0.686 3.91 4.08 0.9542 0.9434 0.3955 -0.0207 -0.085507 -0.704849 
0.688 3.91 4.09 0.9426 0.9383 0.3973 -0.0208 -0.088098 -0.704505 
0.690 3.91 4.09 0.9580 0.9531 0.3993 -0.0210 -0.088098 -0.704059 
0.692 3.91 4.08 0.9433 0.9361 0.4011 -0.0212 -0.085507 -0.703589 
0.694 3.91 4.08 0.9324 0.9386 0.4031 -0.0213 -0.085507 -0.702902 
0.696 3.91 4.09 0.9310 0.9503 0.4049 -0.0215 -0.088098 -0.702389 
0.698 3.91 4.09 0.9778 0.9723 0.4069 -0.0217 -0.088098 -0.701861 
0.700 3.91 4.08 0.9650 0.9936 0.4087 -0.0218 -0.085507 -0.701649 
0.702 3.91 4.08 0.9556 0.9819 0.4107 -0.0220 -0.085507 -0.701687 
0.704 3.91 4.09 0.9762 0.9400 0.4125 -0.0222 -0.088098 -0.701990 
0.706 3.91 4.09 0.9859 0.9574 0.4145 -0.0223 -0.088098 -0.702031 
0.708 3.91 4.09 0.9889 0.9760 0.4165 -0.0225 -0.088098 -0.702549 
0.710 3.91 4.09 1.0025 0.9894 0.4185 -0.0227 -0.088098 -0.702744 
0.712 3.91 4.09 0.9835 0.9835 0.4205 -0.0229 -0.088098 -0.702832 
0.714 3.91 4.09 0.9729 0.9736 0.4225 -0.0230 -0.088098 -0.702838 
0.716 3.91 4.09 1.0200 0.9896 0.4245 -0.0232 -0.088098 -0.703252 
0.718 3.91 4.09 0.9845 0.9880 0.4265 -0.0234 -0.088098 -0.703225 
0.720 3.91 4.09 0.9782 1.0032 0.4285 -0.0236 -0.088098 -0.703356 
0.722 3.91 4.08 0.9839 0.9626 0.4303 -0.0237 -0.085507 -0.703121 
0.724 3.91 4.09 0.9850 0.9524 0.4321 -0.0239 -0.088098 -0.702916 
0.726 3.91 4.09 1.0062 0.9851 0.4341 -0.0241 -0.088098 -0.702751 
0.728 3.91 4.09 0.9742 0.9895 0.4361 -0.0242 -0.088098 -0.702062 
0.730 3.91 4.09 1.0215 0.9954 0.4381 -0.0244 -0.088098 -0.701829 
0.732 3.91 4.09 0.9685 0.9840 0.4401 -0.0246 -0.088098 -0.701702 
0.734 3.91 4.09 1.0039 1.0015 0.4421 -0.0248 -0.088098 -0.701630 
0.736 3.91 4.09 0.9849 0.9742 0.4441 -0.0249 -0.088098 -0.701677 
0.738 3.91 4.09 0.9792 1.0106 0.4461 -0.0251 -0.088098 -0.701767 
0.740 3.91 4.09 0.9881 0.9907 0.4481 -0.0253 -0.088098 -0.702211 
0.742 3.91 4.09 1.0461 1.0090 0.4501 -0.0255 -0.088098 -0.702110 
0.744 3.91 4.09 1.0057 1.0295 0.4521 -0.0256 -0.088098 -0.702107 
0.746 3.91 4.09 1.0448 1.0297 0.4541 -0.0258 -0.088098 -0.701652 
0.748 3.91 4.09 1.0115 0.9768 0.4561 -0.0260 -0.088098 -0.701776 
0.750 3.91 4.09 1.0463 1.0100 0.4581 -0.0262 -0.088098 -0.701606 
0.752 3.91 4.09 1.0181 1.0578 0.4603 -0.0264 -0.090689 -0.701345 
0.754 3.91 4.09 1.0010 1.0048 0.4623 -0.0265 -0.090689 -0.701208 
0.756 3.91 4.09 1.0398 1.0332 0.4645 -0.0267 -0.088098 -0.701155 
0.758 3.91 4.09 0.9978 1.0580 0.4665 -0.0269 -0.088098 -0.701247 
0.760 3.91 4.09 1.0083 1.0387 0.4685 -0.0271 -0.088098 -0.701164 
0.762 3.91 4.09 1.0101 0.9964 0.4705 -0.0273 -0.088098 -0.701195 
0.764 3.91 4.09 1.0418 1.0277 0.4725 -0.0274 -0.088098 -0.701249 
0.766 3.91 4.09 1.0145 1.0401 0.4745 -0.0276 -0.088098 -0.701447 
0.768 3.91 4.09 1.0693 1.0369 0.4765 -0.0278 -0.088098 -0.701186 
0.770 3.91 4.09 1.0131 1.0300 0.4785 -0.0280 -0.088098 -0.701300 
0.772 3.91 4.09 1.0187 1.0423 0.4809 -0.0282 -0.088098 -0.701442 
0.774 3.91 4.09 1.0276 1.0282 0.4829 -0.0284 -0.088098 -0.701682 
0.776 3.91 4.09 1.0046 1.0363 0.4849 -0.0285 -0.088098 -0.701851 
0.778 3.91 4.09 1.0520 1.0439 0.4869 -0.0287 -0.088098 -0.702289 
0.780 3.91 4.08 1.0391 1.0530 0.4891 -0.0289 -0.085507 -0.702364 
0.782 3.91 4.08 1.0752 1.0259 0.4911 -0.0291 -0.085507 -0.702486 
0.784 3.91 4.08 1.0459 1.0308 0.4932 -0.0293 -0.085507 -0.702043 
0.786 3.91 4.09 1.0611 1.0520 0.4954 -0.0294 -0.088098 -0.702194 
0.788 3.91 4.09 1.0345 1.0323 0.4974 -0.0296 -0.088098 -0.702199 
0.790 3.91 4.09 1.0211 1.0428 0.4994 -0.0298 -0.088098 -0.702272 
0.792 3.91 4.08 1.0767 1.0324 0.5016 -0.0300 -0.085507 -0.702428 
0.794 3.91 4.09 1.0241 1.0485 0.5038 -0.0302 -0.088098 -0.702568 
0.796 3.91 4.09 1.0215 1.0346 0.5058 -0.0304 -0.088098 -0.702343 
0.798 3.91 4.09 1.0741 1.0211 0.5078 -0.0305 -0.088098 -0.701944 
0.800 3.91 4.09 1.0211 1.0516 0.5098 -0.0307 -0.088098 -0.701437 
0.802 3.91 4.09 1.0577 1.0364 0.5118 -0.0309 -0.088098 -0.701075 
0.804 3.91 4.09 1.0103 0.9872 0.5138 -0.0311 -0.088098 -0.700648 
0.806 3.91 4.09 1.0267 1.0221 0.5162 -0.0313 -0.088098 -0.700450 
0.808 3.91 4.09 1.0236 1.0664 0.5182 -0.0314 -0.088098 -0.700483 
0.810 3.91 4.09 1.0239 1.0480 0.5202 -0.0316 -0.088098 -0.700553 
0.812 3.91 4.09 1.0777 1.0708 0.5222 -0.0318 -0.088098 -0.701040 
0.814 3.91 4.08 1.0432 1.0714 0.5244 -0.0320 -0.085507 -0.701406 
0.816 3.91 4.08 1.0558 1.0325 0.5264 -0.0322 -0.085507 -0.702053 
0.818 3.91 4.09 1.0766 1.0381 0.5286 -0.0324 -0.088098 -0.702602 
0.820 3.91 4.09 1.0622 1.0853 0.5306 -0.0325 -0.088098 -0.703026 
0.822 3.91 4.09 1.0682 1.0104 0.5328 -0.0327 -0.090689 -0.703314 
0.824 3.91 4.09 1.0840 1.0529 0.5350 -0.0329 -0.088098 -0.703509 
0.826 3.91 4.09 1.0596 1.1058 0.5370 -0.0331 -0.088098 -0.703656 
0.828 3.91 4.09 1.0566 1.0429 0.5390 -0.0333 -0.088098 -0.703622 
0.830 3.91 4.09 1.0806 1.0673 0.5414 -0.0335 -0.088098 -0.703751 
0.832 3.91 4.09 1.0304 1.0897 0.5434 -0.0337 -0.088098 -0.703698 
0.834 3.91 4.09 1.0340 1.0546 0.5454 -0.0338 -0.088098 -0.703652 
0.836 3.91 4.09 1.0358 1.0067 0.5474 -0.0340 -0.088098 -0.703715 
0.838 3.91 4.09 1.0613 1.0337 0.5494 -0.0342 -0.088098 -0.703679 
0.840 3.91 4.09 1.0491 1.0486 0.5518 -0.0344 -0.088098 -0.703559 
0.842 3.91 4.09 1.0578 1.0305 0.5538 -0.0346 -0.088098 -0.703420 
0.844 3.91 4.09 1.0895 1.0597 0.5558 -0.0348 -0.088098 -0.703291 
0.846 3.91 4.09 1.0436 1.0545 0.5580 -0.0350 -0.090689 -0.703320 
0.848 3.91 4.09 1.0336 1.0969 0.5602 -0.0352 -0.088098 -0.703263 
0.850 3.91 4.09 1.0659 1.0695 0.5622 -0.0353 -0.088098 -0.703067 
0.852 3.91 4.09 1.0477 1.0883 0.5642 -0.0355 -0.088098 -0.703014 
0.854 3.91 4.08 1.0609 1.0294 0.5664 -0.0357 -0.085507 -0.703212 
0.856 3.91 4.09 1.0743 1.0624 0.5686 -0.0359 -0.088098 -0.703409 
0.858 3.91 4.09 1.0481 1.0585 0.5706 -0.0361 -0.088098 -0.703275 
0.860 3.91 4.09 1.0721 1.0750 0.5728 -0.0363 -0.090689 -0.703470 
0.862 3.91 4.09 1.0977 1.0712 0.5750 -0.0365 -0.088098 -0.703297 
0.864 3.91 4.09 1.0512 1.0774 0.5770 -0.0366 -0.088098 -0.703113 
0.866 3.91 4.08 1.0525 1.1083 0.5792 -0.0368 -0.085507 -0.703109 
0.868 3.91 4.09 1.0636 1.0799 0.5814 -0.0370 -0.088098 -0.703302 
0.870 3.91 4.09 1.0443 1.1059 0.5834 -0.0372 -0.088098 -0.703503 
0.872 3.91 4.08 1.0647 1.0355 0.5856 -0.0374 -0.085507 -0.703552 
0.874 3.91 4.08 1.0688 1.0766 0.5876 -0.0376 -0.085507 -0.703751 
0.876 3.91 4.09 1.0467 1.0814 0.5898 -0.0377 -0.088098 -0.703744 
0.878 3.91 4.08 1.1032 1.0671 0.5920 -0.0379 -0.085507 -0.703505 
0.880 3.91 4.08 1.0436 1.0893 0.5940 -0.0381 -0.085507 -0.703430 
0.882 3.91 4.08 1.0628 1.0825 0.5964 -0.0383 -0.085507 -0.703201 
0.884 3.91 4.08 1.0596 1.1185 0.5984 -0.0385 -0.085507 -0.703039 
0.886 3.92 4.08 1.0442 1.1292 0.6006 -0.0387 -0.082916 -0.702842 
0.888 3.91 4.08 1.0597 1.0951 0.6028 -0.0389 -0.085507 -0.702761 
0.890 3.91 4.08 1.0728 1.0484 0.6048 -0.0390 -0.085507 -0.702675 
0.892 3.92 4.08 1.0720 1.1285 0.6070 -0.0392 -0.082916 -0.703092 
0.894 3.91 4.08 1.0549 1.0934 0.6092 -0.0394 -0.085507 -0.702971 
0.896 3.92 4.08 1.1064 1.0970 0.6114 -0.0396 -0.082916 -0.703080 
0.898 3.92 4.08 1.0429 1.1437 0.6134 -0.0398 -0.082916 -0.702858 
0.900 3.92 4.08 1.0522 1.0863 0.6158 -0.0400 -0.082916 -0.702333 
0.902 3.92 4.08 1.0561 1.1148 0.6178 -0.0401 -0.082916 -0.701845 
0.904 3.92 4.08 1.0284 1.1067 0.6200 -0.0403 -0.080325 -0.701062 
0.906 3.92 4.08 1.0746 1.0733 0.6220 -0.0405 -0.080325 -0.700608 
0.908 3.92 4.08 1.0703 1.0796 0.6242 -0.0406 -0.082916 -0.700302 
0.910 3.92 4.08 1.0736 1.1239 0.6264 -0.0408 -0.080325 -0.699930 
0.912 3.92 4.08 1.0731 1.0633 0.6284 -0.0410 -0.080325 -0.699779 
0.914 3.92 4.08 1.1219 1.1045 0.6308 -0.0412 -0.080325 -0.699955 
0.916 3.92 4.08 1.0720 1.1166 0.6330 -0.0414 -0.077734 -0.699952 
0.918 3.92 4.08 1.0989 1.1315 0.6352 -0.0415 -0.080325 -0.700118 
0.920 3.92 4.08 1.1052 1.1413 0.6374 -0.0417 -0.077734 -0.700490 
0.922 3.92 4.08 1.1272 1.1330 0.6398 -0.0419 -0.077734 -0.700383 
0.924 3.92 4.08 1.1088 1.1520 0.6420 -0.0421 -0.080325 -0.700441 
0.926 3.92 4.08 1.1035 1.1042 0.6442 -0.0422 -0.077734 -0.700829 
0.928 3.92 4.08 1.1089 1.1191 0.6464 -0.0424 -0.080325 -0.700647 
0.930 3.92 4.08 1.1053 1.1252 0.6486 -0.0426 -0.077734 -0.700402 
0.932 3.92 4.08 1.1288 1.1104 0.6510 -0.0428 -0.077734 -0.700566 
0.934 3.92 4.08 1.0967 1.1244 0.6530 -0.0429 -0.077734 -0.700322 
0.936 3.92 4.08 1.0745 1.1458 0.6554 -0.0431 -0.077734 -0.700129 
0.938 3.92 4.08 1.1253 1.1237 0.6574 -0.0433 -0.077734 -0.700118 
0.940 3.92 4.08 1.0786 1.1345 0.6598 -0.0435 -0.077734 -0.700017 
0.942 3.92 4.08 1.0779 1.0785 0.6618 -0.0436 -0.077734 -0.699919 
0.944 3.92 4.08 1.1142 1.1574 0.6640 -0.0438 -0.075143 -0.699941 
0.946 3.92 4.08 1.1335 1.0716 0.6664 -0.0440 -0.075143 -0.699552 
0.948 3.92 4.08 1.1658 1.1204 0.6686 -0.0441 -0.077734 -0.699260 
0.950 3.92 4.08 1.1111 1.1528 0.6708 -0.0443 -0.075143 -0.699227 
0.952 3.92 4.08 1.0899 1.1247 0.6730 -0.0445 -0.077734 -0.699176 
0.954 3.92 4.08 1.1460 1.1361 0.6752 -0.0446 -0.075143 -0.699257 
0.956 3.92 4.08 1.0928 1.1188 0.6776 -0.0448 -0.075143 -0.699272 
0.958 3.92 4.08 1.0943 1.1175 0.6796 -0.0450 -0.075143 -0.699134 
0.960 3.92 4.08 1.1205 1.1448 0.6820 -0.0452 -0.075143 -0.699275 
0.962 3.93 4.07 1.1488 1.1284 0.6842 -0.0453 -0.072551 -0.699346 
0.964 3.92 4.08 1.1121 1.1475 0.6865 -0.0455 -0.075143 -0.699492 
0.966 3.92 4.08 1.1584 1.1295 0.6889 -0.0457 -0.075143 -0.699636 
0.968 3.93 4.07 1.0935 1.1456 0.6911 -0.0458 -0.072551 -0.700064 
0.970 3.92 4.08 1.1119 1.1196 0.6933 -0.0460 -0.075143 -0.700205 
0.972 3.93 4.07 1.1108 1.1381 0.6955 -0.0462 -0.072551 -0.700502 
0.974 3.93 4.07 1.1234 1.1469 0.6979 -0.0463 -0.072551 -0.700810 
0.976 3.93 4.07 1.0985 1.0943 0.6999 -0.0465 -0.072551 -0.701211 
0.978 3.93 4.07 1.0964 1.1707 0.7023 -0.0466 -0.072551 -0.701548 
0.980 3.93 4.07 1.1279 1.0839 0.7043 -0.0468 -0.072551 -0.701625 
0.982 3.93 4.07 1.1143 1.1276 0.7067 -0.0470 -0.072551 -0.701535 
0.984 3.93 4.07 1.1437 1.1568 0.7091 -0.0471 -0.072551 -0.701356 
0.986 3.93 4.07 1.1206 1.1258 0.7111 -0.0473 -0.072551 -0.701123 
0.988 3.93 4.07 1.0999 1.1469 0.7135 -0.0475 -0.072551 -0.701427 
0.990 3.93 4.07 1.1464 1.1174 0.7157 -0.0476 -0.069960 -0.701907 
0.992 3.93 4.07 1.1096 1.1271 0.7181 -0.0478 -0.069960 -0.702421 
0.994 3.93 4.07 1.0877 1.1518 0.7201 -0.0479 -0.069960 -0.702639 
0.996 3.93 4.07 1.0908 1.1271 0.7225 -0.0481 -0.069960 -0.702324 
0.998 3.93 4.07 1.1255 1.1346 0.7245 -0.0482 -0.069960 -0.701904 
1.000 3.93 4.07 1.1574 1.1170 0.7269 -0.0484 -0.069960 -0.701563 
1.002 3.93 4.07 1.0911 1.1229 0.7291 -0.0486 -0.067369 -0.701055 
1.004 3.93 4.07 1.0684 1.1071 0.7313 -0.0487 -0.069960 -0.700594 
1.006 3.93 4.07 1.1288 1.1247 0.7335 -0.0489 -0.067369 -0.700558 
1.008 3.93 4.07 1.0853 1.1487 0.7357 -0.0490 -0.069960 -0.700715 
1.010 3.93 4.07 1.0896 1.0897 0.7379 -0.0492 -0.067369 -0.700982 
1.012 3.93 4.07 1.1200 1.1727 0.7403 -0.0493 -0.067369 -0.701322 
1.014 3.93 4.07 1.1541 1.1414 0.7423 -0.0495 -0.067369 -0.701542 
1.016 3.93 4.07 1.1173 1.1467 0.7447 -0.0496 -0.067369 -0.701851 
1.018 3.93 4.07 1.1540 1.1778 0.7471 -0.0498 -0.067369 -0.702356 
1.020 3.93 4.07 1.1008 1.1471 0.7491 -0.0499 -0.067369 -0.702542 
1.022 3.93 4.07 1.1103 1.1600 0.7516 -0.0501 -0.067369 -0.702655 
1.024 3.94 4.06 1.1067 1.1272 0.7538 -0.0502 -0.064778 -0.702704 
1.026 3.94 4.06 1.1215 1.1503 0.7562 -0.0504 -0.064778 -0.702755 
1.028 3.94 4.06 1.0925 1.1503 0.7582 -0.0505 -0.064778 -0.702834 
1.030 3.94 4.06 1.0911 1.1276 0.7606 -0.0507 -0.064778 -0.703053 
1.032 3.94 4.06 1.1100 1.1442 0.7628 -0.0508 -0.062187 -0.702623 
1.034 3.94 4.06 1.0966 1.1260 0.7650 -0.0510 -0.064778 -0.702627 
1.036 3.94 4.06 1.1009 1.1348 0.7672 -0.0511 -0.062187 -0.702470 
1.038 3.94 4.06 1.0948 1.1242 0.7694 -0.0512 -0.064778 -0.702090 
1.040 3.94 4.06 1.1006 1.1362 0.7716 -0.0514 -0.062187 -0.701937 
1.042 3.94 4.06 1.1372 1.1452 0.7740 -0.0515 -0.062187 -0.701668 
1.044 3.94 4.06 1.0950 1.0968 0.7760 -0.0517 -0.062187 -0.701350 
1.046 3.94 4.06 1.0921 1.1798 0.7784 -0.0518 -0.062187 -0.701237 
1.048 3.94 4.06 1.1296 1.1015 0.7806 -0.0519 -0.059596 -0.701042 
1.050 3.94 4.06 1.1473 1.1450 0.7830 -0.0521 -0.059596 -0.700614 
1.052 3.94 4.06 1.1863 1.1862 0.7852 -0.0522 -0.062187 -0.700610 
1.054 3.94 4.06 1.1277 1.1634 0.7874 -0.0524 -0.059596 -0.700393 
1.056 3.94 4.06 1.1071 1.1719 0.7898 -0.0525 -0.059596 -0.699882 
1.058 3.94 4.06 1.0934 1.1692 0.7922 -0.0526 -0.059596 -0.699708 
1.060 3.94 4.06 1.1023 1.1799 0.7944 -0.0528 -0.057005 -0.699670 
1.062 3.94 4.06 1.1400 1.1720 0.7968 -0.0529 -0.057005 -0.699805 
1.064 3.94 4.06 1.1337 1.1800 0.7989 -0.0530 -0.057005 -0.700408 
1.066 3.94 4.06 1.1285 1.1588 0.8013 -0.0532 -0.057005 -0.700782 
1.068 3.94 4.06 1.1136 1.2374 0.8037 -0.0533 -0.057005 -0.700571 
1.070 3.94 4.05 1.1699 1.1825 0.8059 -0.0534 -0.054414 -0.700814 
1.072 3.94 4.05 1.1718 1.1859 0.8083 -0.0535 -0.054414 -0.700991 
1.074 3.94 4.05 1.1300 1.1636 0.8107 -0.0537 -0.054414 -0.700951 
1.076 3.95 4.05 1.1005 1.1970 0.8129 -0.0538 -0.051822 -0.700839 
1.078 3.95 4.05 1.1105 1.1171 0.8153 -0.0539 -0.051822 -0.700663 
1.080 3.95 4.05 1.1131 1.1679 0.8173 -0.0540 -0.051822 -0.700321 
1.082 3.95 4.05 1.1357 1.1850 0.8197 -0.0541 -0.051822 -0.700333 
1.084 3.95 4.05 1.1190 1.1832 0.8221 -0.0543 -0.051822 -0.700253 
1.086 3.95 4.05 1.1140 1.1833 0.8243 -0.0544 -0.049231 -0.700196 
1.088 3.95 4.05 1.1225 1.2044 0.8267 -0.0545 -0.049231 -0.700277 
1.090 3.95 4.05 1.1110 1.1964 0.8289 -0.0546 -0.046640 -0.699508 
1.092 3.95 4.05 1.1572 1.1629 0.8313 -0.0547 -0.046640 -0.698729 
1.094 3.95 4.05 1.0969 1.1870 0.8335 -0.0548 -0.049231 -0.698583 
1.096 3.95 4.05 1.0994 1.1411 0.8358 -0.0549 -0.046640 -0.697991 
1.098 3.95 4.05 1.1224 1.1836 0.8382 -0.0550 -0.046640 -0.697497 
1.100 3.96 4.04 1.1562 1.1600 0.8404 -0.0551 -0.044049 -0.697274 
1.102 3.96 4.04 1.1178 1.1769 0.8428 -0.0553 -0.044049 -0.697132 
1.104 3.96 4.04 1.1657 1.2110 0.8452 -0.0554 -0.044049 -0.697289 
1.106 3.96 4.04 1.1128 1.2317 0.8474 -0.0555 -0.041458 -0.697387 
1.108 3.96 4.04 1.1401 1.2009 0.8496 -0.0555 -0.044049 -0.697792 
1.110 3.96 4.04 1.1299 1.1757 0.8520 -0.0557 -0.044049 -0.698072 
1.112 3.96 4.04 1.1662 1.2173 0.8542 -0.0557 -0.041458 -0.698371 
1.114 3.96 4.04 1.1481 1.1725 0.8566 -0.0558 -0.041458 -0.698810 
1.116 3.96 4.04 1.1718 1.1881 0.8590 -0.0559 -0.041458 -0.698988 
1.118 3.96 4.04 1.1850 1.1941 0.8614 -0.0560 -0.041458 -0.699005 
1.120 3.96 4.04 1.2218 1.1779 0.8638 -0.0561 -0.041458 -0.699031 
1.122 3.96 4.04 1.1504 1.1901 0.8660 -0.0562 -0.038867 -0.698954 
1.124 3.96 4.04 1.1290 1.1976 0.8685 -0.0563 -0.038867 -0.698890 
1.126 3.96 4.04 1.1476 1.1644 0.8709 -0.0564 -0.038867 -0.698911 
1.128 3.96 4.04 1.1212 1.2013 0.8731 -0.0565 -0.036276 -0.698916 
1.130 3.96 4.04 1.1595 1.1575 0.8755 -0.0566 -0.036276 -0.699005 
1.132 3.96 4.04 1.1500 1.1585 0.8777 -0.0567 -0.038867 -0.698886 
1.134 3.96 4.04 1.1646 1.1709 0.8801 -0.0568 -0.038867 -0.699061 
1.136 3.96 4.04 1.1358 1.1651 0.8823 -0.0569 -0.036276 -0.698904 
1.138 3.96 4.04 1.1567 1.1646 0.8847 -0.0569 -0.036276 -0.698735 
1.140 3.96 4.04 1.1576 1.2118 0.8871 -0.0570 -0.036276 -0.698836 
1.142 3.96 4.04 1.1318 1.1408 0.8895 -0.0571 -0.036276 -0.699177 
1.144 3.97 4.03 1.1863 1.2015 0.8917 -0.0572 -0.033685 -0.699321 
1.146 3.97 4.03 1.1467 1.1292 0.8941 -0.0573 -0.033685 -0.699551 
1.148 3.96 4.04 1.1932 1.1769 0.8963 -0.0574 -0.036276 -0.699650 
1.150 3.96 4.04 1.1821 1.2105 0.8988 -0.0574 -0.036276 -0.699861 
1.152 3.97 4.03 1.1447 1.1907 0.9010 -0.0575 -0.033685 -0.699929 
1.154 3.97 4.03 1.1616 1.1949 0.9034 -0.0576 -0.033685 -0.700211 
1.156 3.97 4.03 1.1189 1.1833 0.9058 -0.0577 -0.033685 -0.700603 
1.158 3.97 4.03 1.1645 1.1953 0.9080 -0.0577 -0.031093 -0.700960 
1.160 3.97 4.03 1.1356 1.1790 0.9104 -0.0578 -0.031093 -0.701757 
1.162 3.97 4.03 1.1478 1.1742 0.9128 -0.0579 -0.031093 -0.702279 
1.164 3.97 4.03 1.1262 1.1728 0.9150 -0.0580 -0.028502 -0.702902 
1.166 3.97 4.03 1.1209 1.1862 0.9174 -0.0580 -0.028502 -0.703379 
1.168 3.97 4.03 1.1230 1.1712 0.9196 -0.0581 -0.031093 -0.703365 
1.170 3.97 4.03 1.1265 1.1862 0.9218 -0.0582 -0.028502 -0.703200 
1.172 3.97 4.03 1.1546 1.1614 0.9242 -0.0582 -0.028502 -0.702946 
1.174 3.97 4.03 1.1159 1.1966 0.9267 -0.0583 -0.028502 -0.702920 
1.176 3.97 4.03 1.1079 1.1560 0.9289 -0.0584 -0.025911 -0.703002 
1.178 3.97 4.03 1.1242 1.1838 0.9313 -0.0584 -0.025911 -0.703002 
1.180 3.98 4.02 1.1218 1.1647 0.9335 -0.0585 -0.023320 -0.703259 
1.182 3.97 4.03 1.1644 1.1828 0.9357 -0.0585 -0.025911 -0.702927 
1.184 3.97 4.03 1.1513 1.1778 0.9381 -0.0586 -0.025911 -0.702506 
1.186 3.98 4.02 1.1176 1.1963 0.9403 -0.0587 -0.023320 -0.701886 
1.188 3.98 4.02 1.1305 1.2066 0.9427 -0.0587 -0.023320 -0.701062 
1.190 3.98 4.02 1.1038 1.1653 0.9449 -0.0588 -0.020729 -0.700495 
1.192 3.98 4.02 1.1454 1.1877 0.9473 -0.0588 -0.020729 -0.700346 
1.194 3.98 4.02 1.1233 1.1747 0.9497 -0.0589 -0.020729 -0.700397 
1.196 3.98 4.02 1.0975 1.1911 0.9520 -0.0589 -0.018138 -0.700310 
1.198 3.98 4.02 1.1219 1.1776 0.9542 -0.0589 -0.020729 -0.700289 
1.200 3.98 4.02 1.1389 1.1973 0.9564 -0.0590 -0.018138 -0.700591 
1.202 3.98 4.02 1.1544 1.2342 0.9588 -0.0590 -0.018138 -0.700867 
1.204 3.98 4.02 1.1441 1.2504 0.9612 -0.0591 -0.018138 -0.701152 
1.206 3.98 4.02 1.1794 1.1791 0.9636 -0.0591 -0.018138 -0.701282 
1.208 3.98 4.01 1.1566 1.2276 0.9658 -0.0592 -0.015547 -0.701281 
1.210 3.98 4.01 1.1336 1.1739 0.9682 -0.0592 -0.015547 -0.701208 
1.212 3.98 4.01 1.1503 1.2142 0.9706 -0.0592 -0.015547 -0.701142 
1.214 3.98 4.01 1.1308 1.1912 0.9730 -0.0593 -0.015547 -0.701231 
1.216 3.99 4.01 1.1926 1.1990 0.9752 -0.0593 -0.012956 -0.701190 
1.218 3.99 4.01 1.1816 1.2289 0.9777 -0.0593 -0.012956 -0.701044 
1.220 3.99 4.01 1.1314 1.2507 0.9801 -0.0594 -0.012956 -0.700863 
1.222 3.99 4.01 1.1721 1.1677 0.9825 -0.0594 -0.012956 -0.700694 
1.224 3.99 4.01 1.1064 1.2104 0.9847 -0.0594 -0.010364 -0.700533 
1.226 3.99 4.01 1.1244 1.1697 0.9871 -0.0594 -0.010364 -0.700972 
1.228 3.99 4.01 1.1281 1.2116 0.9893 -0.0595 -0.007773 -0.700874 
1.230 3.99 4.01 1.1431 1.1927 0.9917 -0.0595 -0.007773 -0.700704 
1.232 3.99 4.01 1.1237 1.2078 0.9941 -0.0595 -0.007773 -0.700650 
1.234 3.99 4.00 1.1217 1.2366 0.9963 -0.0595 -0.005182 -0.700532 
1.236 3.99 4.00 1.1332 1.2543 0.9987 -0.0595 -0.005182 -0.700351 
1.238 3.99 4.00 1.1261 1.1826 1.0011 -0.0595 -0.005182 -0.700224 
1.240 3.99 4.00 1.1437 1.2339 1.0036 -0.0596 -0.005182 -0.699910 
1.242 4.00 4.00 1.1290 1.1883 1.0058 -0.0596 -0.002591 -0.699778 
1.244 4.00 4.00 1.1693 1.2316 1.0082 -0.0596 -0.002591 -0.699674 
1.246 4.00 4.00 1.1388 1.2086 1.0106 -0.0596 -0.002591 -0.699757 
1.248 4.00 4.00 1.1221 1.2259 1.0128 -0.0596 -0.000000 -0.699942 
1.250 4.00 4.00 1.1521 1.2464 1.0154 -0.0596 0.002591 -0.699975 
1.252 4.00 4.00 1.1495 1.2530 1.0178 -0.0596 0.002591 -0.700441 
1.254 4.00 3.99 1.1467 1.2196 1.0200 -0.0596 0.005182 -0.700656 
1.256 4.00 3.99 1.1906 1.2354 1.0224 -0.0596 0.005182 -0.700826 
1.258 4.00 3.99 1.1931 1.2159 1.0248 -0.0595 0.005182 -0.701504 
1.260 4.00 3.99 1.1501 1.2247 1.0273 -0.0595 0.005182 -0.701691 
1.262 4.01 3.99 1.1261 1.2133 1.0295 -0.0595 0.007773 -0.701451 
1.264 4.01 3.99 1.1284 1.2164 1.0319 -0.0595 0.007773 -0.701236 
1.266 4.01 3.99 1.1209 1.2407 1.0343 -0.0595 0.007773 -0.701241 
1.268 4.01 3.99 1.1579 1.2389 1.0365 -0.0595 0.010364 -0.701021 
1.270 4.01 3.99 1.1759 1.2100 1.0389 -0.0594 0.010364 -0.700994 
1.272 4.01 3.99 1.2118 1.2265 1.0413 -0.0594 0.010364 -0.700744 
1.274 4.01 3.99 1.1377 1.1984 1.0437 -0.0594 0.010364 -0.700229 
1.276 4.01 3.99 1.1246 1.2078 1.0459 -0.0594 0.012956 -0.699688 
1.278 4.01 3.99 1.1398 1.2042 1.0483 -0.0593 0.012956 -0.699292 
1.280 4.01 3.99 1.1103 1.1976 1.0507 -0.0593 0.012956 -0.698687 
1.282 4.01 3.98 1.1598 1.2240 1.0530 -0.0593 0.015547 -0.698290 
1.284 4.01 3.98 1.1470 1.2305 1.0554 -0.0592 0.015547 -0.697851 
1.286 4.01 3.98 1.1618 1.1977 1.0578 -0.0592 0.015547 -0.697768 
1.288 4.01 3.98 1.1504 1.2160 1.0602 -0.0592 0.015547 -0.697606 
1.290 4.01 3.98 1.1589 1.1985 1.0626 -0.0591 0.015547 -0.697722 
1.292 4.02 3.98 1.1625 1.2136 1.0648 -0.0591 0.018138 -0.697892 
1.294 4.02 3.98 1.1494 1.2112 1.0672 -0.0590 0.018138 -0.698090 
1.296 4.02 3.98 1.1726 1.2151 1.0696 -0.0590 0.018138 -0.698400 
1.298 4.02 3.98 1.1477 1.2362 1.0720 -0.0589 0.018138 -0.698774 
1.300 4.02 3.98 1.1780 1.1895 1.0746 -0.0589 0.020729 -0.699001 
1.302 4.02 3.98 1.2043 1.2283 1.0768 -0.0588 0.023320 -0.698893 
1.304 4.02 3.98 1.1538 1.1882 1.0791 -0.0588 0.020729 -0.698842 
1.306 4.02 3.98 1.1907 1.1963 1.0817 -0.0587 0.023320 -0.698856 
1.308 4.02 3.98 1.1886 1.2055 1.0839 -0.0587 0.020729 -0.698901 
1.310 4.02 3.98 1.1387 1.2032 1.0861 -0.0586 0.023320 -0.698970 
1.312 4.02 3.98 1.1234 1.1995 1.0885 -0.0586 0.023320 -0.698679 
1.314 4.02 3.98 1.1317 1.2225 1.0909 -0.0585 0.023320 -0.698558 
1.316 4.03 3.97 1.1337 1.2241 1.0931 -0.0585 0.025911 -0.698436 
1.318 4.03 3.97 1.1572 1.1896 1.0955 -0.0584 0.025911 -0.698276 
1.320 4.03 3.97 1.1727 1.2077 1.0979 -0.0584 0.025911 -0.698133 
1.322 4.03 3.97 1.2081 1.1865 1.1003 -0.0583 0.025911 -0.697843 
1.324 4.03 3.97 1.1440 1.2023 1.1025 -0.0582 0.028502 -0.697734 
1.326 4.03 3.97 1.1195 1.1989 1.1050 -0.0582 0.028502 -0.697674 
1.328 4.03 3.97 1.1452 1.2027 1.1074 -0.0581 0.028502 -0.697450 
1.330 4.03 3.97 1.1311 1.2287 1.1098 -0.0580 0.028502 -0.697306 
1.332 4.03 3.97 1.1640 1.2362 1.1120 -0.0580 0.031093 -0.697120 
1.334 4.03 3.97 1.1530 1.2052 1.1144 -0.0579 0.031093 -0.696872 
1.336 4.03 3.97 1.1685 1.2263 1.1168 -0.0578 0.031093 -0.696957 
1.338 4.03 3.97 1.1303 1.2054 1.1190 -0.0577 0.033685 -0.697145 
1.340 4.03 3.97 1.1525 1.2183 1.1214 -0.0577 0.033685 -0.697145 
1.342 4.03 3.97 1.1478 1.2180 1.1238 -0.0576 0.033685 -0.697225 
1.344 4.03 3.97 1.1226 1.2178 1.1262 -0.0575 0.033685 -0.697359 
1.346 4.04 3.96 1.1757 1.2282 1.1286 -0.0574 0.038867 -0.697371 
1.348 4.04 3.96 1.1326 1.2002 1.1310 -0.0573 0.038867 -0.697556 
1.350 4.04 3.96 1.1763 1.2297 1.1335 -0.0572 0.038867 -0.697408 
1.352 4.04 3.96 1.1180 1.1813 1.1357 -0.0571 0.041458 -0.696775 
1.354 4.04 3.96 1.1279 1.2110 1.1381 -0.0570 0.041458 -0.696534 
1.356 4.04 3.96 1.1454 1.1896 1.1405 -0.0569 0.041458 -0.696274 
1.358 4.04 3.96 1.1204 1.2617 1.1427 -0.0568 0.044049 -0.696157 
1.360 4.04 3.96 1.1519 1.2083 1.1451 -0.0567 0.044049 -0.695871 
1.362 4.05 3.95 1.1226 1.2209 1.1473 -0.0566 0.046640 -0.695485 
1.364 4.05 3.95 1.0994 1.1956 1.1497 -0.0565 0.046640 -0.695001 
1.366 4.05 3.95 1.1106 1.2308 1.1521 -0.0564 0.046640 -0.694296 
1.368 4.05 3.95 1.1275 1.1793 1.1543 -0.0563 0.049231 -0.693914 
1.370 4.05 3.95 1.1434 1.2129 1.1567 -0.0562 0.049231 -0.693357 
1.372 4.05 3.95 1.1275 1.1936 1.1591 -0.0561 0.049231 -0.692957 
1.374 4.05 3.95 1.1359 1.2735 1.1613 -0.0560 0.051822 -0.692599 
1.376 4.05 3.95 1.1427 1.2174 1.1637 -0.0558 0.051822 -0.692276 
1.378 4.05 3.95 1.1275 1.2377 1.1661 -0.0557 0.051822 -0.692177 
1.380 4.05 3.94 1.1824 1.2133 1.1684 -0.0556 0.054414 -0.692176 
1.382 4.06 3.94 1.1492 1.2543 1.1710 -0.0554 0.057005 -0.692200 
1.384 4.06 3.94 1.2014 1.2276 1.1734 -0.0553 0.057005 -0.692284 
1.386 4.06 3.94 1.1930 1.2371 1.1758 -0.0552 0.057005 -0.692164 
1.388 4.06 3.94 1.1557 1.2348 1.1780 -0.0550 0.059596 -0.692151 
1.390 4.06 3.94 1.1764 1.2710 1.1804 -0.0549 0.059596 -0.692124 
1.392 4.06 3.94 1.1379 1.2486 1.1828 -0.0547 0.059596 -0.691981 
1.394 4.06 3.94 1.1556 1.2159 1.1854 -0.0546 0.062187 -0.691879 
1.396 4.06 3.94 1.1379 1.2722 1.1878 -0.0544 0.062187 -0.691925 
1.398 4.06 3.94 1.1747 1.2014 1.1900 -0.0543 0.064778 -0.691853 
1.400 4.06 3.94 1.1422 1.2893 1.1924 -0.0541 0.064778 -0.691618 
1.402 4.06 3.94 1.1677 1.1889 1.1948 -0.0540 0.064778 -0.691560 
1.404 4.07 3.93 1.1759 1.2363 1.1974 -0.0538 0.067369 -0.691260 
1.406 4.07 3.93 1.1327 1.2444 1.1996 -0.0537 0.069960 -0.691106 
1.408 4.07 3.93 1.1494 1.2284 1.2020 -0.0535 0.069960 -0.690612 
1.410 4.07 3.93 1.1323 1.2331 1.2044 -0.0533 0.069960 -0.690271 
1.412 4.07 3.93 1.1588 1.2470 1.2068 -0.0532 0.069960 -0.690227 
1.414 4.07 3.93 1.1408 1.2150 1.2090 -0.0530 0.072551 -0.690124 
1.416 4.08 3.92 1.1822 1.2055 1.2116 -0.0528 0.075143 -0.690023 
1.418 4.08 3.92 1.1720 1.2479 1.2140 -0.0526 0.075143 -0.689916 
1.420 4.08 3.92 1.1838 1.2241 1.2164 -0.0524 0.075143 -0.689658 
1.422 4.08 3.92 1.1660 1.2404 1.2188 -0.0523 0.075143 -0.689503 
1.424 4.08 3.92 1.1996 1.2719 1.2213 -0.0521 0.075143 -0.689585 
1.426 4.08 3.92 1.1663 1.2905 1.2235 -0.0519 0.077734 -0.689607 
1.428 4.08 3.92 1.1463 1.2315 1.2261 -0.0517 0.080325 -0.689912 
1.430 4.08 3.92 1.1612 1.2531 1.2285 -0.0515 0.080325 -0.690150 
1.432 4.08 3.92 1.1453 1.2337 1.2309 -0.0513 0.080325 -0.690686 
1.434 4.08 3.92 1.1682 1.2507 1.2333 -0.0511 0.080325 -0.690778 
1.436 4.08 3.92 1.2038 1.2435 1.2355 -0.0509 0.082916 -0.691052 
1.438 4.08 3.91 1.1619 1.2473 1.2381 -0.0507 0.085507 -0.690976 
1.440 4.08 3.91 1.1929 1.2547 1.2405 -0.0505 0.085507 -0.690816 
1.442 4.08 3.91 1.1968 1.2215 1.2429 -0.0503 0.085507 -0.690504 
1.444 4.08 3.91 1.1602 1.2607 1.2453 -0.0501 0.085507 -0.690424 
1.446 4.09 3.91 1.1361 1.2079 1.2475 -0.0499 0.088098 -0.690338 
1.448 4.09 3.91 1.1506 1.2363 1.2499 -0.0497 0.088098 -0.690499 
1.450 4.09 3.91 1.1447 1.2136 1.2523 -0.0495 0.088098 -0.690665 
1.452 4.09 3.91 1.1579 1.2518 1.2549 -0.0493 0.090689 -0.690430 
1.454 4.09 3.91 1.1619 1.2263 1.2573 -0.0490 0.090689 -0.689837 
1.456 4.09 3.91 1.2279 1.2224 1.2595 -0.0488 0.093280 -0.689321 
1.458 4.09 3.91 1.1502 1.2206 1.2619 -0.0486 0.093280 -0.688741 
1.460 4.09 3.91 1.1879 1.2270 1.2643 -0.0484 0.093280 -0.688120 
1.462 4.09 3.91 1.1607 1.2118 1.2667 -0.0482 0.093280 -0.687906 
1.464 4.09 3.91 1.1754 1.2180 1.2691 -0.0479 0.093280 -0.687856 
1.466 4.09 3.90 1.1503 1.2159 1.2713 -0.0477 0.095872 -0.687591 
1.468 4.09 3.90 1.1430 1.2503 1.2737 -0.0475 0.095872 -0.688001 
1.470 4.09 3.90 1.1577 1.2293 1.2761 -0.0473 0.095872 -0.688276 
1.472 4.09 3.90 1.1533 1.2356 1.2785 -0.0470 0.095872 -0.688506 
1.474 4.10 3.90 1.1743 1.2607 1.2811 -0.0468 0.098463 -0.689004 
1.476 4.10 3.90 1.1593 1.1864 1.2835 -0.0466 0.098463 -0.689456 
1.478 4.10 3.90 1.1854 1.2690 1.2859 -0.0463 0.098463 -0.689722 
1.480 4.10 3.90 1.1629 1.1773 1.2881 -0.0461 0.101054 -0.690092 
1.482 4.10 3.90 1.2048 1.2186 1.2905 -0.0459 0.101054 -0.690258 
1.484 4.10 3.90 1.1804 1.2230 1.2928 -0.0456 0.101054 -0.690369 
1.486 4.10 3.90 1.1890 1.2154 1.2952 -0.0454 0.101054 -0.690364 
1.488 4.10 3.90 1.1626 1.2230 1.2978 -0.0451 0.103645 -0.690087 
1.490 4.10 3.90 1.1914 1.2339 1.3002 -0.0448 0.103645 -0.690012 
1.492 4.10 3.90 1.1287 1.1991 1.3026 -0.0446 0.103645 -0.690019 
1.494 4.11 3.89 1.1341 1.2290 1.3048 -0.0444 0.106236 -0.689870 
1.496 4.11 3.89 1.1494 1.1944 1.3072 -0.0441 0.106236 -0.689695 
1.498 4.11 3.89 1.1332 1.2059 1.3096 -0.0439 0.106236 -0.689423 
1.500 4.11 3.89 1.1943 1.2246 1.3118 -0.0436 0.108827 -0.689251 
1.502 4.11 3.89 1.1939 1.2181 1.3142 -0.0434 0.108827 -0.689376 
1.504 4.11 3.89 1.1508 1.2256 1.3166 -0.0431 0.108827 -0.689367 
1.506 4.11 3.89 1.1834 1.2457 1.3190 -0.0428 0.108827 -0.689318 
1.508 4.11 3.89 1.1946 1.2118 1.3216 -0.0425 0.111418 -0.689353 
1.510 4.11 3.88 1.1467 1.2070 1.3238 -0.0423 0.114009 -0.689275 
1.512 4.11 3.88 1.1297 1.2459 1.3262 -0.0420 0.114009 -0.689269 
1.514 4.11 3.88 1.1401 1.2192 1.3286 -0.0418 0.114009 -0.689032 
1.516 4.12 3.88 1.1427 1.2406 1.3308 -0.0415 0.116600 -0.689036 
1.518 4.12 3.88 1.1711 1.2718 1.3332 -0.0412 0.116600 -0.689102 
1.520 4.12 3.88 1.1818 1.2726 1.3358 -0.0409 0.119192 -0.689065 
1.522 4.12 3.88 1.2186 1.2328 1.3382 -0.0406 0.119192 -0.689130 
1.524 4.12 3.88 1.1385 1.2571 1.3406 -0.0403 0.119192 -0.689224 
1.526 4.12 3.88 1.1266 1.2375 1.3427 -0.0401 0.121783 -0.689148 
1.528 4.12 3.88 1.1494 1.2534 1.3451 -0.0398 0.121783 -0.689155 
1.530 4.12 3.88 1.1215 1.2473 1.3475 -0.0395 0.121783 -0.688984 
1.532 4.12 3.88 1.1470 1.2480 1.3501 -0.0392 0.124374 -0.688742 
1.534 4.13 3.87 1.1560 1.2638 1.3523 -0.0389 0.126965 -0.688558 
1.536 4.13 3.87 1.1738 1.2341 1.3547 -0.0386 0.126965 -0.688462 
1.538 4.13 3.87 1.1595 1.2773 1.3571 -0.0383 0.126965 -0.688268 
1.540 4.13 3.87 1.1858 1.2455 1.3597 -0.0379 0.129556 -0.688082 
1.542 4.13 3.87 1.1665 1.2517 1.3621 -0.0376 0.129556 -0.687492 
1.544 4.13 3.87 1.1371 1.2479 1.3643 -0.0373 0.132147 -0.686706 
1.546 4.13 3.87 1.1450 1.2839 1.3666 -0.0370 0.132147 -0.686060 
1.548 4.13 3.87 1.1299 1.2337 1.3692 -0.0367 0.134738 -0.685439 
1.550 4.14 3.86 1.1985 1.2355 1.3714 -0.0364 0.137329 -0.685107 
1.552 4.14 3.86 1.1911 1.2820 1.3738 -0.0361 0.137329 -0.684932 
1.554 4.14 3.86 1.1518 1.2004 1.3762 -0.0357 0.137329 -0.684311 
1.556 4.14 3.86 1.1967 1.2648 1.3788 -0.0354 0.139921 -0.684134 
1.558 4.14 3.86 1.2066 1.2202 1.3812 -0.0350 0.139921 -0.684048 
1.560 4.14 3.86 1.1569 1.2399 1.3834 -0.0347 0.142512 -0.684106 
1.562 4.14 3.86 1.1473 1.2501 1.3857 -0.0344 0.142512 -0.684605 
1.564 4.14 3.86 1.1584 1.2424 1.3881 -0.0340 0.142512 -0.684880 
1.566 4.14 3.85 1.1513 1.3015 1.3907 -0.0337 0.145103 -0.685005 
1.568 4.14 3.85 1.1628 1.2227 1.3931 -0.0333 0.145103 -0.684967 
1.570 4.14 3.85 1.1730 1.2751 1.3955 -0.0330 0.145103 -0.684725 
1.572 4.15 3.85 1.2348 1.2226 1.3977 -0.0326 0.147694 -0.684455 
1.574 4.15 3.85 1.1578 1.2601 1.4002 -0.0322 0.150285 -0.684084 
1.576 4.15 3.85 1.1963 1.2494 1.4026 -0.0319 0.150285 -0.683875 
1.578 4.15 3.85 1.1704 1.2484 1.4050 -0.0315 0.150285 -0.683751 
1.580 4.15 3.85 1.1851 1.2685 1.4074 -0.0312 0.150285 -0.683265 
1.582 4.15 3.85 1.1589 1.2748 1.4098 -0.0308 0.150285 -0.682839 
1.584 4.16 3.84 1.1549 1.2605 1.4122 -0.0304 0.155467 -0.682496 
1.586 4.16 3.84 1.1604 1.2114 1.4145 -0.0301 0.155467 -0.681943 
1.588 4.16 3.84 1.1491 1.2411 1.4169 -0.0297 0.155467 -0.681438 
1.590 4.16 3.84 1.1705 1.2198 1.4193 -0.0293 0.155467 -0.681444 
1.592 4.16 3.84 1.1532 1.2957 1.4217 -0.0289 0.155467 -0.681149 
1.594 4.16 3.84 1.1791 1.2410 1.4241 -0.0286 0.155467 -0.681186 
1.596 4.16 3.84 1.1557 1.2475 1.4266 -0.0282 0.158059 -0.681281 
1.598 4.16 3.84 1.1814 1.2387 1.4290 -0.0278 0.158059 -0.681078 
1.600 4.16 3.84 1.1893 1.2528 1.4312 -0.0274 0.160650 -0.681056 
1.602 4.16 3.84 1.2062 1.2314 1.4336 -0.0271 0.160650 -0.680939 
1.604 4.16 3.84 1.1895 1.2386 1.4360 -0.0267 0.160650 -0.680763 
1.606 4.16 3.84 1.2179 1.2351 1.4383 -0.0263 0.160650 -0.680662 
1.608 4.16 3.84 1.1742 1.2331 1.4409 -0.0259 0.163241 -0.680708 
1.610 4.16 3.84 1.2241 1.2252 1.4433 -0.0255 0.163241 -0.681000 
1.612 4.16 3.84 1.1652 1.2243 1.4457 -0.0251 0.163241 -0.681454 
1.614 4.16 3.84 1.2054 1.2740 1.4480 -0.0247 0.163241 -0.681769 
1.616 4.16 3.84 1.1918 1.1908 1.4504 -0.0243 0.163241 -0.682112 
1.618 4.17 3.83 1.2032 1.2613 1.4530 -0.0239 0.165832 -0.681975 
1.620 4.17 3.83 1.1797 1.2098 1.4554 -0.0235 0.165832 -0.681824 
1.622 4.17 3.83 1.2076 1.2225 1.4578 -0.0231 0.165832 -0.681710 
1.624 4.17 3.83 1.1551 1.2250 1.4601 -0.0227 0.165832 -0.681672 
1.626 4.17 3.83 1.1435 1.2144 1.4623 -0.0223 0.168423 -0.681550 
1.628 4.17 3.83 1.1628 1.2234 1.4647 -0.0219 0.168423 -0.681513 
1.630 4.17 3.83 1.1428 1.2399 1.4671 -0.0215 0.168423 -0.681171 
1.632 4.17 3.83 1.1737 1.2090 1.4694 -0.0211 0.168423 -0.680552 
1.634 4.17 3.83 1.1696 1.1998 1.4720 -0.0206 0.171014 -0.679877 
1.636 4.17 3.83 1.1662 1.2412 1.4742 -0.0203 0.173605 -0.679020 
1.638 4.17 3.83 1.2074 1.2189 1.4766 -0.0199 0.173605 -0.678588 
1.640 4.17 3.83 1.2106 1.2339 1.4789 -0.0194 0.173605 -0.678319 
1.642 4.17 3.83 1.1725 1.2646 1.4813 -0.0190 0.173605 -0.677775 
1.644 4.17 3.83 1.2122 1.2841 1.4837 -0.0186 0.173605 -0.677733 
1.646 4.17 3.83 1.1731 1.2078 1.4861 -0.0182 0.173605 -0.677968 
1.648 4.18 3.82 1.2261 1.2482 1.4886 -0.0177 0.176196 -0.678229 
1.650 4.18 3.82 1.1786 1.2266 1.4908 -0.0173 0.178788 -0.678676 
1.652 4.18 3.82 1.1820 1.2415 1.4932 -0.0169 0.178788 -0.678968 
1.654 4.18 3.82 1.2011 1.2375 1.4955 -0.0165 0.178788 -0.679206 
1.656 4.18 3.82 1.1624 1.2402 1.4979 -0.0161 0.178788 -0.679477 
1.658 4.18 3.82 1.1805 1.2636 1.5003 -0.0156 0.178788 -0.679491 
1.660 4.18 3.82 1.1626 1.2251 1.5029 -0.0152 0.181379 -0.679432 
1.662 4.18 3.82 1.1700 1.2654 1.5052 -0.0147 0.181379 -0.679147 
1.664 4.18 3.82 1.1600 1.2133 1.5076 -0.0143 0.181379 -0.678770 
1.666 4.18 3.82 1.1644 1.2443 1.5100 -0.0139 0.181379 -0.678316 
1.668 4.18 3.82 1.1732 1.2234 1.5123 -0.0134 0.181379 -0.678163 
1.670 4.19 3.81 1.2351 1.2613 1.5147 -0.0130 0.186561 -0.677853 
1.672 4.19 3.81 1.1491 1.2485 1.5171 -0.0125 0.186561 -0.677209 
1.674 4.19 3.81 1.2004 1.2518 1.5194 -0.0121 0.186561 -0.676707 
1.676 4.19 3.81 1.1725 1.2441 1.5218 -0.0116 0.186561 -0.676372 
1.678 4.19 3.81 1.1889 1.2535 1.5242 -0.0112 0.186561 -0.676398 
1.680 4.19 3.81 1.1693 1.2813 1.5267 -0.0107 0.189152 -0.676959 
1.682 4.19 3.81 1.1974 1.1877 1.5291 -0.0103 0.189152 -0.677368 
1.684 4.19 3.81 1.1785 1.2323 1.5315 -0.0098 0.189152 -0.677654 
1.686 4.19 3.81 1.1638 1.2352 1.5336 -0.0094 0.191743 -0.678009 
1.688 4.19 3.81 1.1832 1.2309 1.5360 -0.0089 0.191743 -0.678190 
1.690 4.19 3.81 1.1643 1.2443 1.5386 -0.0084 0.194334 -0.678311 
1.692 4.19 3.81 1.1807 1.2649 1.5409 -0.0080 0.194334 -0.678489 
1.694 4.19 3.81 1.1604 1.2296 1.5433 -0.0075 0.194334 -0.678594 
1.696 4.19 3.81 1.1809 1.2704 1.5457 -0.0070 0.194334 -0.678499 
1.698 4.19 3.81 1.1767 1.2231 1.5480 -0.0066 0.194334 -0.678606 
1.700 4.20 3.80 1.1843 1.2385 1.5506 -0.0061 0.196926 -0.678869 
1.702 4.20 3.80 1.1670 1.2565 1.5529 -0.0056 0.196926 -0.679165 
1.704 4.20 3.80 1.1728 1.2885 1.5553 -0.0051 0.196926 -0.679257 
1.706 4.20 3.80 1.1554 1.2772 1.5579 -0.0046 0.199517 -0.679082 
1.708 4.20 3.80 1.1906 1.2464 1.5600 -0.0042 0.202108 -0.679105 
1.710 4.20 3.80 1.1522 1.2696 1.5624 -0.0037 0.202108 -0.679173 
1.712 4.20 3.80 1.1888 1.2489 1.5648 -0.0032 0.202108 -0.678922 
1.714 4.20 3.80 1.1749 1.2652 1.5671 -0.0027 0.202108 -0.679159 
1.716 4.20 3.79 1.1935 1.3140 1.5697 -0.0022 0.204699 -0.679179 
1.718 4.20 3.79 1.1700 1.2554 1.5720 -0.0017 0.204699 -0.678610 
1.720 4.20 3.79 1.2037 1.2724 1.5744 -0.0012 0.204699 -0.678130 
1.722 4.21 3.79 1.1811 1.2585 1.5768 -0.0007 0.209881 -0.677547 
1.724 4.21 3.79 1.1622 1.2703 1.5791 -0.0002 0.209881 -0.676992 
1.726 4.21 3.79 1.1828 1.2493 1.5815 0.0003 0.209881 -0.676733 
1.728 4.21 3.79 1.1685 1.2580 1.5838 0.0008 0.209881 -0.676646 
1.730 4.21 3.79 1.2008 1.2443 1.5864 0.0013 0.212472 -0.676711 
1.732 4.21 3.79 1.2012 1.2474 1.5887 0.0019 0.212472 -0.676936 
1.734 4.21 3.79 1.1879 1.2437 1.5911 0.0024 0.212472 -0.677268 
1.736 4.21 3.79 1.2136 1.2397 1.5934 0.0029 0.212472 -0.677496 
1.738 4.21 3.78 1.2154 1.2751 1.5960 0.0034 0.215063 -0.677824 
1.740 4.21 3.78 1.1974 1.2379 1.5983 0.0039 0.215063 -0.678415 
1.742 4.21 3.78 1.2134 1.2785 1.6007 0.0045 0.215063 -0.678780 
1.744 4.21 3.78 1.1846 1.2330 1.6031 0.0050 0.215063 -0.678919 
1.746 4.22 3.78 1.2181 1.2437 1.6056 0.0055 0.217655 -0.678872 
1.748 4.22 3.78 1.2141 1.2601 1.6080 0.0060 0.217655 -0.678733 
1.750 4.22 3.78 1.1912 1.2889 1.6103 0.0066 0.217655 -0.678434 
1.752 4.22 3.78 1.2348 1.2833 1.6131 0.0072 0.217655 -0.678248 
1.754 4.22 3.78 1.1924 1.2388 1.6154 0.0077 0.217655 -0.677947 
1.756 4.22 3.78 1.2417 1.2678 1.6178 0.0082 0.217655 -0.677686 
1.758 4.22 3.78 1.1993 1.2458 1.6199 0.0087 0.220246 -0.677560 
1.760 4.22 3.78 1.1821 1.2583 1.6223 0.0092 0.220246 -0.677343 
1.762 4.22 3.78 1.2095 1.3093 1.6248 0.0098 0.222837 -0.677090 
1.764 4.22 3.78 1.2047 1.2508 1.6272 0.0103 0.222837 -0.676877 
1.766 4.22 3.78 1.1881 1.2669 1.6295 0.0109 0.222837 -0.677123 
1.768 4.22 3.78 1.2401 1.2497 1.6323 0.0115 0.222837 -0.677433 
1.770 4.22 3.78 1.1873 1.2547 1.6346 0.0120 0.222837 -0.677455 
1.772 4.22 3.78 1.2458 1.2433 1.6370 0.0126 0.222837 -0.677536 
1.774 4.22 3.78 1.1914 1.2498 1.6393 0.0131 0.222837 -0.677769 
1.776 4.22 3.78 1.2336 1.2457 1.6417 0.0136 0.222837 -0.677822 
1.778 4.22 3.77 1.2190 1.2387 1.6442 0.0142 0.225428 -0.677707 
1.780 4.22 3.77 1.2338 1.2326 1.6466 0.0147 0.225428 -0.677734 
1.782 4.22 3.77 1.2098 1.2294 1.6489 0.0153 0.225428 -0.677728 
1.784 4.22 3.77 1.2409 1.2776 1.6512 0.0158 0.225428 -0.677935 
1.786 4.23 3.77 1.1947 1.2001 1.6538 0.0164 0.228019 -0.678397 
1.788 4.23 3.77 1.2491 1.2665 1.6561 0.0169 0.228019 -0.678704 
1.790 4.23 3.77 1.1878 1.2219 1.6585 0.0175 0.228019 -0.679026 
1.792 4.23 3.77 1.2351 1.2350 1.6608 0.0180 0.228019 -0.679475 
1.794 4.23 3.77 1.2144 1.2423 1.6632 0.0186 0.228019 -0.679547 
1.796 4.23 3.77 1.2242 1.2735 1.6657 0.0192 0.230610 -0.679401 
1.798 4.23 3.77 1.2064 1.2914 1.6681 0.0197 0.230610 -0.679538 
1.800 4.23 3.77 1.2354 1.2134 1.6704 0.0203 0.230610 -0.680135 
1.802 4.23 3.77 1.1799 1.2555 1.6728 0.0208 0.230610 -0.680745 
1.804 4.23 3.77 1.2345 1.2062 1.6751 0.0214 0.230610 -0.680535 
1.806 4.23 3.77 1.1711 1.2406 1.6775 0.0219 0.230610 -0.680318 
1.808 4.23 3.77 1.2031 1.2147 1.6798 0.0225 0.230610 -0.679630 
1.810 4.23 3.77 1.1862 1.2296 1.6821 0.0230 0.230610 -0.679020 
1.812 4.23 3.77 1.2040 1.2512 1.6847 0.0236 0.233201 -0.678596 
1.814 4.23 3.77 1.1910 1.2576 1.6870 0.0242 0.233201 -0.678225 
1.816 4.23 3.77 1.2296 1.2191 1.6894 0.0247 0.233201 -0.678174 
1.818 4.23 3.77 1.1848 1.2422 1.6917 0.0253 0.233201 -0.678357 
1.820 4.23 3.77 1.2439 1.2225 1.6941 0.0259 0.233201 -0.678633 
1.822 4.23 3.77 1.1837 1.2351 1.6964 0.0264 0.233201 -0.679405 
1.824 4.23 3.77 1.2291 1.2308 1.6988 0.0270 0.233201 -0.680414 
1.826 4.23 3.77 1.2128 1.2354 1.7011 0.0275 0.233201 -0.681166 
1.828 4.24 3.76 1.2259 1.2481 1.7036 0.0281 0.235793 -0.682171 
1.830 4.24 3.76 1.2087 1.2194 1.7060 0.0287 0.235793 -0.683241 
1.832 4.24 3.76 1.2382 1.2601 1.7083 0.0293 0.235793 -0.683810 
1.834 4.24 3.76 1.1785 1.2102 1.7107 0.0298 0.235793 -0.683988 
1.836 4.24 3.76 1.2284 1.2422 1.7130 0.0304 0.235793 -0.683769 
1.838 4.24 3.76 1.1697 1.2198 1.7154 0.0309 0.235793 -0.683364 
1.840 4.24 3.76 1.2030 1.2699 1.7179 0.0316 0.238384 -0.682834 
1.842 4.24 3.76 1.1892 1.2553 1.7202 0.0321 0.238384 -0.682336 
1.844 4.24 3.76 1.2077 1.2595 1.7226 0.0327 0.238384 -0.681870 
1.846 4.24 3.76 1.1917 1.2515 1.7251 0.0333 0.240975 -0.681426 
1.848 4.24 3.76 1.2336 1.2057 1.7275 0.0339 0.240975 -0.680965 
1.850 4.24 3.76 1.1961 1.2975 1.7298 0.0345 0.240975 -0.680780 
1.852 4.24 3.76 1.2520 1.2001 1.7321 0.0350 0.240975 -0.680719 
1.854 4.24 3.76 1.1938 1.2473 1.7345 0.0356 0.240975 -0.680812 
1.856 4.24 3.76 1.2384 1.2604 1.7370 0.0362 0.243566 -0.681252 
1.858 4.24 3.76 1.2195 1.2527 1.7393 0.0368 0.243566 -0.681233 
1.860 4.24 3.76 1.2305 1.2561 1.7417 0.0374 0.243566 -0.681179 
1.862 4.25 3.75 1.2169 1.2322 1.7442 0.0380 0.246157 -0.681299 
1.864 4.25 3.75 1.2500 1.2829 1.7466 0.0386 0.246157 -0.681336 
1.866 4.25 3.75 1.1956 1.2302 1.7489 0.0392 0.246157 -0.681443 
1.868 4.25 3.75 1.2524 1.2711 1.7512 0.0398 0.246157 -0.681411 
1.870 4.25 3.75 1.2000 1.2566 1.7538 0.0404 0.248748 -0.681534 
1.872 4.25 3.75 1.2445 1.2596 1.7561 0.0410 0.248748 -0.681802 
1.874 4.25 3.75 1.2017 1.2806 1.7586 0.0417 0.246157 -0.681896 
1.876 4.25 3.75 1.2146 1.2481 1.7610 0.0423 0.246157 -0.682042 
1.878 4.25 3.75 1.2008 1.2815 1.7635 0.0429 0.248748 -0.682086 
1.880 4.25 3.75 1.2120 1.2258 1.7658 0.0435 0.248748 -0.681844 
1.882 4.25 3.75 1.1877 1.2564 1.7682 0.0441 0.248748 -0.681898 
1.884 4.25 3.75 1.2150 1.2342 1.7705 0.0447 0.248748 -0.682019 
1.886 4.25 3.75 1.1793 1.2814 1.7730 0.0453 0.251339 -0.681941 
1.888 4.25 3.75 1.2068 1.2600 1.7754 0.0459 0.251339 -0.682235 
1.890 4.25 3.75 1.1996 1.2598 1.7777 0.0465 0.251339 -0.681980 
1.892 4.25 3.75 1.2042 1.2836 1.7802 0.0472 0.253930 -0.681398 
1.894 4.25 3.75 1.1935 1.2042 1.7826 0.0478 0.253930 -0.680672 
1.896 4.25 3.75 1.2047 1.2905 1.7849 0.0484 0.253930 -0.680019 
1.898 4.25 3.75 1.1730 1.1916 1.7872 0.0490 0.253930 -0.679180 
1.900 4.25 3.75 1.2026 1.2333 1.7896 0.0496 0.253930 -0.678865 
1.902 4.26 3.74 1.1821 1.2469 1.7921 0.0503 0.256522 -0.678803 
1.904 4.26 3.74 1.2068 1.2378 1.7944 0.0509 0.256522 -0.679025 
1.906 4.26 3.74 1.2054 1.2450 1.7967 0.0515 0.256522 -0.679130 
1.908 4.25 3.75 1.2541 1.2635 1.7993 0.0521 0.253930 -0.679714 
1.910 4.25 3.75 1.3003 1.2250 1.8016 0.0527 0.253930 -0.680092 
1.912 4.26 3.74 1.2235 1.2193 1.8041 0.0534 0.256522 -0.680535 
1.914 4.26 3.74 1.2738 1.2564 1.8065 0.0540 0.256522 -0.681178 
1.916 4.26 3.74 1.2481 1.2316 1.8088 0.0546 0.256522 -0.681619 
1.918 4.25 3.75 1.2433 1.2476 1.8113 0.0553 0.253930 -0.681746 
1.920 4.25 3.75 1.2318 1.2786 1.8136 0.0559 0.253930 -0.681910 
1.922 4.26 3.74 1.2452 1.2696 1.8162 0.0565 0.256522 -0.681825 
1.924 4.26 3.74 1.2405 1.2312 1.8185 0.0572 0.256522 -0.681299 
1.926 4.25 3.75 1.2838 1.2477 1.8210 0.0578 0.253930 -0.680803 
1.928 4.25 3.75 1.2897 1.2168 1.8234 0.0584 0.253930 -0.680488 
1.930 4.25 3.75 1.2330 1.2289 1.8257 0.0590 0.253930 -0.680186 
1.932 4.25 3.75 1.2746 1.2245 1.8280 0.0596 0.253930 -0.679975 
1.934 4.25 3.75 1.2277 1.2253 1.8304 0.0602 0.253930 -0.680001 
1.936 4.25 3.75 1.2792 1.2480 1.8327 0.0608 0.253930 -0.680027 
1.938 4.25 3.75 1.2358 1.2091 1.8354 0.0616 0.253930 -0.680376 
1.940 4.25 3.75 1.2153 1.2492 1.8377 0.0622 0.253930 -0.680948 
1.942 4.25 3.75 1.2317 1.1985 1.8401 0.0628 0.253930 -0.680985 
1.944 4.25 3.75 1.2377 1.2270 1.8424 0.0634 0.253930 -0.681187 
1.946 4.25 3.75 1.2126 1.2071 1.8447 0.0640 0.253930 -0.681416 
1.948 4.25 3.75 1.2317 1.2810 1.8471 0.0646 0.253930 -0.681528 
1.950 4.25 3.75 1.2082 1.2267 1.8494 0.0652 0.253930 -0.681639 
1.952 4.25 3.75 1.2300 1.2401 1.8519 0.0658 0.251339 -0.681606 
1.954 4.25 3.75 1.2447 1.2122 1.8545 0.0665 0.253930 -0.681553 
1.956 4.25 3.75 1.2190 1.2405 1.8568 0.0671 0.253930 -0.681507 
1.958 4.25 3.75 1.2510 1.2190 1.8591 0.0677 0.253930 -0.681565 
1.960 4.25 3.75 1.2040 1.2280 1.8615 0.0683 0.253930 -0.681655 
1.962 4.25 3.75 1.2471 1.2239 1.8638 0.0689 0.253930 -0.681803 
1.964 4.25 3.75 1.1899 1.2553 1.8661 0.0695 0.253930 -0.681970 
1.966 4.25 3.75 1.2348 1.2336 1.8685 0.0701 0.253930 -0.682117 
1.968 4.25 3.75 1.2219 1.2377 1.8708 0.0707 0.253930 -0.682029 
1.970 4.26 3.74 1.2404 1.2627 1.8733 0.0714 0.256522 -0.682386 
1.972 4.26 3.74 1.2174 1.1846 1.8756 0.0720 0.256522 -0.682978 
1.974 4.25 3.75 1.2144 1.2682 1.8782 0.0727 0.253930 -0.683179 
1.976 4.25 3.75 1.1880 1.1817 1.8805 0.0733 0.253930 -0.683392 
1.978 4.25 3.75 1.2110 1.2254 1.8828 0.0739 0.253930 -0.683733 
1.980 4.25 3.75 1.1763 1.2312 1.8852 0.0745 0.253930 -0.682966 
1.982 4.25 3.75 1.2000 1.2255 1.8875 0.0751 0.253930 -0.682258 
1.984 4.26 3.74 1.1948 1.2380 1.8900 0.0757 0.256522 -0.681428 
1.986 4.26 3.74 1.2034 1.2573 1.8924 0.0764 0.256522 -0.680593 
1.988 4.26 3.74 1.1930 1.2213 1.8947 0.0770 0.256522 -0.679951 
1.990 4.26 3.74 1.2115 1.2598 1.8970 0.0776 0.256522 -0.679727 
1.992 4.26 3.74 1.1938 1.2159 1.8994 0.0782 0.256522 -0.679793 
1.994 4.26 3.74 1.2169 1.2329 1.9017 0.0788 0.256522 -0.679910 
1.996 4.26 3.74 1.1937 1.2497 1.9042 0.0795 0.259113 -0.680496 
1.998 4.26 3.74 1.2210 1.2850 1.9065 0.0801 0.259113 -0.680992 
2.000 4.26 3.74 1.2182 1.3054 1.9089 0.0807 0.259113 -0.681679 
2.002 4.26 3.74 1.2667 1.2494 1.9116 0.0814 0.259113 -0.682308 
2.004 4.26 3.74 1.3132 1.2702 1.9139 0.0820 0.259113 -0.683052 
2.006 4.26 3.74 1.2296 1.2488 1.9162 0.0827 0.259113 -0.683281 
2.008 4.26 3.74 1.2740 1.2624 1.9186 0.0833 0.259113 -0.683432 
2.010 4.26 3.74 1.2334 1.3149 1.9211 0.0839 0.261704 -0.683020 
2.012 4.26 3.74 1.1962 1.2539 1.9236 0.0846 0.259113 -0.682384 
2.014 4.26 3.74 1.2033 1.2689 1.9259 0.0852 0.259113 -0.681953 
2.016 4.26 3.74 1.2133 1.2369 1.9283 0.0859 0.259113 -0.681659 
2.018 4.26 3.74 1.2109 1.2654 1.9308 0.0865 0.261704 -0.681181 
2.020 4.26 3.74 1.2288 1.2452 1.9331 0.0871 0.261704 -0.680471 
2.022 4.26 3.74 1.1865 1.2501 1.9355 0.0878 0.261704 -0.680153 
2.024 4.26 3.74 1.2106 1.2445 1.9378 0.0884 0.261704 -0.680153 
2.026 4.26 3.74 1.1946 1.2776 1.9401 0.0890 0.261704 -0.680232 
2.028 4.26 3.73 1.2137 1.2324 1.9426 0.0897 0.264295 -0.680372 
2.030 4.26 3.73 1.2038 1.2302 1.9450 0.0903 0.264295 -0.680565 
2.032 4.26 3.73 1.2226 1.2793 1.9473 0.0910 0.264295 -0.680706 
2.034 4.26 3.74 1.2325 1.1995 1.9498 0.0916 0.261704 -0.680900 
2.036 4.26 3.73 1.2788 1.2678 1.9523 0.0923 0.264295 -0.680963 
2.038 4.26 3.73 1.2910 1.2182 1.9546 0.0929 0.264295 -0.680940 
2.040 4.26 3.73 1.2508 1.2346 1.9570 0.0936 0.264295 -0.681123 
2.042 4.26 3.74 1.2310 1.2444 1.9595 0.0942 0.261704 -0.681098 
2.044 4.26 3.74 1.2295 1.2352 1.9618 0.0949 0.261704 -0.681038 
2.046 4.26 3.73 1.2580 1.2925 1.9643 0.0955 0.264295 -0.681106 
2.048 4.26 3.73 1.2458 1.2165 1.9667 0.0962 0.264295 -0.681206 
2.050 4.26 3.73 1.2147 1.2662 1.9690 0.0968 0.264295 -0.680985 
2.052 4.26 3.74 1.2691 1.2130 1.9715 0.0975 0.261704 -0.680815 
2.054 4.26 3.74 1.2199 1.2527 1.9738 0.0981 0.261704 -0.680653 
2.056 4.26 3.74 1.2721 1.2277 1.9762 0.0987 0.261704 -0.680774 
2.058 4.26 3.73 1.2184 1.2426 1.9787 0.0994 0.264295 -0.681060 
2.060 4.26 3.73 1.2650 1.2616 1.9810 0.1000 0.264295 -0.681374 
2.062 4.26 3.73 1.2471 1.2602 1.9833 0.1007 0.264295 -0.681249 
2.064 4.26 3.74 1.2406 1.2209 1.9859 0.1014 0.261704 -0.680875 
2.066 4.26 3.74 1.2262 1.2318 1.9882 0.1020 0.261704 -0.680400 
2.068 4.26 3.74 1.2385 1.2060 1.9905 0.1026 0.261704 -0.679553 
2.070 4.26 3.74 1.2092 1.2191 1.9928 0.1032 0.261704 -0.678768 
2.072 4.26 3.74 1.2372 1.2090 1.9952 0.1038 0.261704 -0.678623 
2.074 4.26 3.74 1.2575 1.2051 1.9977 0.1045 0.259113 -0.678435 
2.076 4.26 3.74 1.2319 1.2296 2.0000 0.1051 0.259113 -0.678369 
2.078 4.26 3.74 1.2600 1.2327 2.0024 0.1057 0.259113 -0.678397 
2.080 4.26 3.74 1.2747 1.1990 2.0047 0.1064 0.259113 -0.678279 
2.082 4.26 3.74 1.2710 1.2200 2.0072 0.1070 0.256522 -0.678461 
2.084 4.26 3.74 1.2301 1.2014 2.0095 0.1076 0.256522 -0.678897 
2.086 4.26 3.74 1.2529 1.2160 2.0119 0.1083 0.256522 -0.679203 
2.088 4.26 3.74 1.2297 1.2097 2.0142 0.1089 0.256522 -0.679485 
2.090 4.25 3.75 1.2524 1.2154 2.0167 0.1095 0.253930 -0.679855 
2.092 4.26 3.74 1.3094 1.2249 2.0193 0.1102 0.256522 -0.680265 
2.094 4.26 3.74 1.2953 1.1992 2.0216 0.1108 0.256522 -0.680422 
2.096 4.26 3.74 1.2520 1.2375 2.0239 0.1114 0.256522 -0.680198 
2.098 4.25 3.75 1.2499 1.1877 2.0264 0.1121 0.253930 -0.680110 
2.100 4.25 3.75 1.2512 1.2172 2.0288 0.1127 0.253930 -0.679913 
2.102 4.25 3.75 1.2228 1.1984 2.0311 0.1133 0.253930 -0.679794 
2.104 4.25 3.75 1.2343 1.2711 2.0334 0.1139 0.253930 -0.679808 
2.106 4.25 3.75 1.2036 1.2154 2.0358 0.1145 0.253930 -0.679304 
2.108 4.25 3.75 1.2353 1.2296 2.0381 0.1151 0.253930 -0.678759 
2.110 4.25 3.75 1.2480 1.2032 2.0406 0.1157 0.251339 -0.678445 
2.112 4.25 3.75 1.2261 1.2406 2.0430 0.1163 0.251339 -0.678227 
2.114 4.25 3.75 1.2649 1.1921 2.0453 0.1169 0.251339 -0.678055 
2.116 4.25 3.75 1.2232 1.2198 2.0476 0.1175 0.251339 -0.678117 
2.118 4.25 3.75 1.2797 1.1993 2.0500 0.1181 0.251339 -0.678179 
2.120 4.25 3.75 1.2226 1.2737 2.0525 0.1188 0.248748 -0.678220 
2.122 4.25 3.75 1.2385 1.2249 2.0550 0.1194 0.251339 -0.678573 
2.124 4.25 3.75 1.2332 1.2296 2.0574 0.1200 0.251339 -0.678892 
2.126 4.25 3.75 1.2428 1.2212 2.0597 0.1206 0.251339 -0.679042 
2.128 4.25 3.75 1.3189 1.2347 2.0622 0.1213 0.248748 -0.679766 
2.130 4.25 3.75 1.2278 1.2170 2.0646 0.1219 0.248748 -0.680465 
2.132 4.25 3.75 1.2709 1.2250 2.0669 0.1225 0.248748 -0.680452 
2.134 4.25 3.75 1.2290 1.2233 2.0692 0.1231 0.248748 -0.680996 
2.136 4.25 3.75 1.2474 1.2543 2.0716 0.1237 0.248748 -0.681118 
2.138 4.25 3.75 1.2084 1.2330 2.0739 0.1242 0.248748 -0.680741 
2.140 4.25 3.75 1.2341 1.2356 2.0762 0.1248 0.248748 -0.680461 
2.142 4.25 3.75 1.2461 1.2600 2.0788 0.1255 0.251339 -0.680104 
2.144 4.25 3.75 1.2325 1.1834 2.0813 0.1261 0.248748 -0.679731 
2.146 4.25 3.75 1.1970 1.2690 2.0836 0.1267 0.248748 -0.679482 
2.148 4.25 3.75 1.2211 1.1745 2.0860 0.1273 0.248748 -0.679200 
2.150 4.25 3.75 1.1940 1.2165 2.0883 0.1279 0.248748 -0.678725 
2.152 4.25 3.75 1.2169 1.2226 2.0906 0.1285 0.248748 -0.678169 
2.154 4.25 3.75 1.2054 1.2168 2.0930 0.1291 0.248748 -0.677622 
2.156 4.25 3.75 1.2253 1.2302 2.0955 0.1297 0.251339 -0.677107 
2.158 4.25 3.75 1.2344 1.2510 2.0978 0.1303 0.251339 -0.676475 
2.160 4.25 3.75 1.2755 1.2132 2.1004 0.1310 0.248748 -0.676093 
2.162 4.25 3.75 1.2823 1.2539 2.1027 0.1316 0.248748 -0.675454 
2.164 4.25 3.75 1.2381 1.2083 2.1050 0.1322 0.248748 -0.675179 
2.166 4.25 3.75 1.2844 1.2238 2.1074 0.1328 0.248748 -0.675445 
2.168 4.25 3.75 1.2433 1.2337 2.1097 0.1334 0.248748 -0.675643 
2.170 4.25 3.75 1.2573 1.2659 2.1124 0.1341 0.248748 -0.675816 
2.172 4.25 3.75 1.2556 1.2853 2.1148 0.1347 0.248748 -0.676048 
2.174 4.25 3.75 1.2383 1.2093 2.1171 0.1352 0.248748 -0.676272 
2.176 4.25 3.75 1.2600 1.2579 2.1196 0.1359 0.246157 -0.676465 
2.178 4.25 3.75 1.2490 1.2075 2.1220 0.1365 0.246157 -0.676634 
2.180 4.25 3.75 1.3051 1.2478 2.1243 0.1371 0.246157 -0.676601 
2.182 4.25 3.75 1.2394 1.2217 2.1267 0.1376 0.246157 -0.676410 
2.184 4.25 3.75 1.2539 1.2330 2.1294 0.1383 0.246157 -0.676180 
2.186 4.25 3.75 1.2469 1.2596 2.1317 0.1389 0.246157 -0.676005 
2.188 4.25 3.75 1.2543 1.2622 2.1340 0.1395 0.246157 -0.675701 
2.190 4.24 3.76 1.3271 1.2261 2.1366 0.1401 0.243566 -0.675368 
2.192 4.24 3.76 1.2350 1.2434 2.1389 0.1407 0.243566 -0.675029 
2.194 4.24 3.76 1.2750 1.2122 2.1413 0.1413 0.243566 -0.674381 
2.196 4.24 3.76 1.2358 1.2245 2.1436 0.1419 0.243566 -0.674250 
2.198 4.24 3.76 1.2613 1.2190 2.1459 0.1425 0.243566 -0.674342 
2.200 4.24 3.76 1.2235 1.2200 2.1487 0.1431 0.243566 -0.674181 
2.202 4.24 3.76 1.2332 1.2313 2.1510 0.1437 0.243566 -0.674355 
2.204 4.24 3.76 1.2488 1.2004 2.1533 0.1443 0.243566 -0.674509 
2.206 4.24 3.76 1.2722 1.2313 2.1557 0.1449 0.243566 -0.674575 
2.208 4.24 3.76 1.3089 1.1859 2.1582 0.1455 0.240975 -0.674773 
2.210 4.24 3.76 1.2710 1.2138 2.1606 0.1461 0.240975 -0.674955 
2.212 4.24 3.76 1.3130 1.1951 2.1629 0.1467 0.240975 -0.674904 
2.214 4.24 3.76 1.2500 1.2679 2.1654 0.1473 0.238384 -0.674886 
2.216 4.24 3.76 1.2806 1.2134 2.1678 0.1479 0.238384 -0.675028 
2.218 4.24 3.76 1.2688 1.2243 2.1701 0.1484 0.238384 -0.675183 
2.220 4.24 3.76 1.2620 1.1982 2.1727 0.1490 0.235793 -0.675130 
2.222 4.24 3.76 1.2967 1.2314 2.1750 0.1496 0.235793 -0.675431 
2.224 4.24 3.76 1.2408 1.1781 2.1773 0.1502 0.235793 -0.675400 
2.226 4.23 3.77 1.2536 1.2029 2.1799 0.1508 0.233201 -0.675179 
2.228 4.23 3.77 1.2272 1.1835 2.1822 0.1513 0.233201 -0.675322 
2.230 4.23 3.77 1.2515 1.2573 2.1846 0.1519 0.233201 -0.675288 
2.232 4.23 3.77 1.2451 1.2011 2.1869 0.1524 0.233201 -0.675065 
2.234 4.23 3.77 1.2894 1.2157 2.1895 0.1530 0.230610 -0.674937 
2.236 4.23 3.77 1.3285 1.1871 2.1918 0.1536 0.230610 -0.674602 
2.238 4.23 3.77 1.2388 1.2198 2.1941 0.1541 0.230610 -0.674003 
2.240 4.23 3.77 1.2435 1.1686 2.1967 0.1547 0.228019 -0.673550 
2.242 4.23 3.77 1.2288 1.1953 2.1990 0.1553 0.228019 -0.673157 
2.244 4.23 3.77 1.2372 1.1755 2.2014 0.1558 0.228019 -0.672419 
2.246 4.23 3.77 1.2237 1.2481 2.2037 0.1564 0.228019 -0.672325 
2.248 4.23 3.77 1.2421 1.1968 2.2061 0.1569 0.228019 -0.672255 
2.250 4.22 3.77 1.2501 1.2122 2.2086 0.1575 0.225428 -0.672045 
2.252 4.22 3.77 1.2975 1.1862 2.2110 0.1580 0.225428 -0.672112 
2.254 4.22 3.77 1.3091 1.2240 2.2133 0.1586 0.225428 -0.672500 
2.256 4.22 3.78 1.2418 1.1778 2.2159 0.1592 0.222837 -0.672872 
2.258 4.22 3.78 1.2689 1.2076 2.2182 0.1597 0.222837 -0.673589 
2.260 4.22 3.78 1.2456 1.1896 2.2206 0.1602 0.222837 -0.673820 
2.262 4.22 3.78 1.2680 1.2629 2.2231 0.1608 0.220246 -0.673962 
2.264 4.22 3.78 1.2835 1.2100 2.2255 0.1613 0.220246 -0.674071 
2.266 4.22 3.78 1.2620 1.2258 2.2278 0.1618 0.220246 -0.673933 
2.268 4.22 3.78 1.2555 1.2004 2.2304 0.1624 0.217655 -0.673618 
2.270 4.22 3.78 1.2251 1.2331 2.2327 0.1629 0.217655 -0.673389 
2.272 4.22 3.78 1.2486 1.1877 2.2351 0.1635 0.217655 -0.673368 
2.274 4.22 3.78 1.2061 1.2164 2.2374 0.1640 0.217655 -0.673269 
2.276 4.22 3.78 1.2319 1.1970 2.2398 0.1645 0.217655 -0.673463 
2.278 4.21 3.78 1.2567 1.2729 2.2423 0.1651 0.215063 -0.673545 
2.280 4.21 3.78 1.2646 1.2179 2.2447 0.1656 0.215063 -0.673106 
2.282 4.21 3.78 1.3082 1.2283 2.2470 0.1661 0.215063 -0.672415 
2.284 4.21 3.78 1.2249 1.2039 2.2494 0.1666 0.215063 -0.672808 
2.286 4.22 3.78 1.2671 1.2319 2.2519 0.1672 0.217655 -0.673983 
2.288 4.21 3.78 1.2364 1.2097 2.2545 0.1677 0.215063 -0.673977 
2.290 4.21 3.78 1.2360 1.2157 2.2568 0.1682 0.215063 -0.674158 
2.292 4.21 3.78 1.2256 1.2104 2.2592 0.1687 0.215063 -0.673996 
2.294 4.21 3.78 1.2418 1.2426 2.2615 0.1693 0.215063 -0.673780 
2.296 4.21 3.78 1.2494 1.2207 2.2639 0.1698 0.215063 -0.673851 
2.298 4.21 3.79 1.2968 1.2242 2.2665 0.1703 0.212472 -0.673786 
2.300 4.21 3.79 1.3085 1.2193 2.2688 0.1708 0.212472 -0.673942 
2.302 4.21 3.79 1.2706 1.2303 2.2712 0.1713 0.212472 -0.673915 
2.304 4.21 3.79 1.2701 1.2158 2.2737 0.1719 0.209881 -0.674258 
2.306 4.21 3.79 1.2513 1.2224 2.2761 0.1724 0.209881 -0.674831 
2.308 4.21 3.79 1.2807 1.2186 2.2784 0.1729 0.209881 -0.675550 
2.310 4.21 3.79 1.2848 1.2506 2.2810 0.1734 0.207290 -0.676087 
2.312 4.21 3.79 1.2613 1.2271 2.2833 0.1739 0.207290 -0.676123 
2.314 4.21 3.79 1.2929 1.2049 2.2859 0.1745 0.209881 -0.675678 
2.316 4.21 3.79 1.2226 1.2462 2.2885 0.1750 0.207290 -0.675575 
2.318 4.21 3.79 1.2436 1.1737 2.2908 0.1755 0.207290 -0.675370 
2.320 4.21 3.79 1.2151 1.2416 2.2932 0.1760 0.207290 -0.675319 
2.322 4.21 3.79 1.2401 1.1543 2.2955 0.1765 0.207290 -0.675069 
2.324 4.21 3.79 1.2302 1.1959 2.2979 0.1770 0.207290 -0.674541 
2.326 4.20 3.79 1.2749 1.1982 2.3004 0.1775 0.204699 -0.673923 
2.328 4.20 3.79 1.3200 1.1924 2.3028 0.1780 0.204699 -0.673096 
2.330 4.20 3.79 1.2318 1.1921 2.3052 0.1785 0.204699 -0.672765 
2.332 4.20 3.79 1.2815 1.2398 2.3075 0.1790 0.204699 -0.672616 
2.334 4.20 3.80 1.2366 1.1660 2.3101 0.1795 0.202108 -0.672780 
2.336 4.20 3.80 1.2532 1.2499 2.3124 0.1800 0.202108 -0.673082 
2.338 4.20 3.80 1.2384 1.1598 2.3148 0.1805 0.202108 -0.673484 
2.340 4.20 3.80 1.3046 1.2019 2.3174 0.1810 0.199517 -0.673699 
2.342 4.20 3.80 1.2646 1.2068 2.3197 0.1815 0.199517 -0.673833 
2.344 4.20 3.80 1.3112 1.2020 2.3221 0.1820 0.199517 -0.674729 
2.346 4.20 3.80 1.2827 1.1968 2.3246 0.1825 0.196926 -0.675181 
2.348 4.20 3.80 1.2605 1.2430 2.3270 0.1830 0.196926 -0.675262 
2.350 4.20 3.80 1.2834 1.1629 2.3294 0.1834 0.196926 -0.675290 
2.352 4.19 3.81 1.3045 1.2363 2.3319 0.1839 0.194334 -0.675093 
2.354 4.19 3.81 1.2832 1.1437 2.3343 0.1844 0.194334 -0.674861 
2.356 4.19 3.81 1.2757 1.1811 2.3368 0.1849 0.191743 -0.674650 
2.358 4.19 3.81 1.2667 1.1793 2.3392 0.1854 0.191743 -0.674398 
2.360 4.19 3.81 1.2680 1.1705 2.3418 0.1859 0.189152 -0.674128 
2.362 4.19 3.81 1.3195 1.1710 2.3441 0.1863 0.189152 -0.674007 
2.364 4.19 3.81 1.2853 1.2206 2.3465 0.1868 0.189152 -0.673967 
2.366 4.19 3.81 1.2786 1.1449 2.3491 0.1872 0.186561 -0.673878 
2.368 4.19 3.81 1.2617 1.2301 2.3514 0.1877 0.186561 -0.673714 
2.370 4.18 3.82 1.3264 1.1359 2.3540 0.1882 0.183970 -0.673906 
2.372 4.18 3.82 1.2836 1.1781 2.3564 0.1886 0.183970 -0.674024 
2.374 4.18 3.82 1.2874 1.1877 2.3589 0.1891 0.181379 -0.673830 
2.376 4.18 3.82 1.2933 1.1802 2.3613 0.1895 0.181379 -0.674007 
2.378 4.18 3.82 1.2640 1.1791 2.3637 0.1900 0.181379 -0.673890 
2.380 4.18 3.82 1.2609 1.2248 2.3663 0.1904 0.178788 -0.673748 
2.382 4.18 3.82 1.3037 1.1672 2.3684 0.1908 0.176196 -0.673889 
2.384 4.18 3.82 1.2774 1.1916 2.3712 0.1913 0.176196 -0.674139 
2.386 4.17 3.83 1.2684 1.2000 2.3734 0.1917 0.173605 -0.674298 
2.388 4.17 3.83 1.2581 1.1980 2.3757 0.1921 0.173605 -0.674624 
2.390 4.17 3.83 1.2524 1.2333 2.3783 0.1926 0.171014 -0.674878 
2.392 4.17 3.83 1.3027 1.2142 2.3807 0.1930 0.171014 -0.675122 
2.394 4.17 3.83 1.2667 1.2176 2.3831 0.1934 0.171014 -0.675554 
2.396 4.17 3.83 1.2563 1.2389 2.3858 0.1939 0.171014 -0.676117 
2.398 4.17 3.83 1.2452 1.1334 2.3882 0.1943 0.171014 -0.676373 
2.400 4.17 3.83 1.2623 1.2437 2.3906 0.1947 0.171014 -0.676745 
2.402 4.17 3.83 1.2614 1.1662 2.3930 0.1951 0.165832 -0.676886 
2.404 4.17 3.83 1.3037 1.1948 2.3953 0.1955 0.165832 -0.677146 
2.406 4.17 3.83 1.3095 1.2259 2.3977 0.1959 0.165832 -0.677819 
2.408 4.16 3.84 1.2320 1.1950 2.4003 0.1963 0.163241 -0.677550 
2.410 4.16 3.84 1.2423 1.1950 2.4027 0.1967 0.163241 -0.676894 
2.412 4.16 3.84 1.2246 1.1756 2.4050 0.1971 0.163241 -0.676432 
2.414 4.16 3.84 1.2539 1.1891 2.4074 0.1975 0.163241 -0.675813 
2.416 4.16 3.84 1.2502 1.1745 2.4098 0.1979 0.163241 -0.675203 
2.418 4.16 3.84 1.2450 1.1854 2.4124 0.1983 0.160650 -0.674856 
2.420 4.16 3.84 1.2861 1.1829 2.4148 0.1987 0.160650 -0.674694 
2.422 4.16 3.84 1.2392 1.2175 2.4171 0.1991 0.160650 -0.674892 
2.424 4.16 3.84 1.2620 1.1951 2.4197 0.1995 0.158059 -0.675271 
2.426 4.16 3.84 1.2350 1.2038 2.4221 0.1999 0.158059 -0.675825 
2.428 4.16 3.84 1.2563 1.1987 2.4245 0.2002 0.158059 -0.676252 
2.430 4.16 3.84 1.2509 1.2164 2.4269 0.2006 0.158059 -0.676837 
2.432 4.16 3.84 1.2951 1.1980 2.4294 0.2010 0.155467 -0.677509 
2.434 4.16 3.84 1.3407 1.2101 2.4318 0.2014 0.155467 -0.678006 
2.436 4.15 3.85 1.2567 1.2054 2.4344 0.2018 0.152876 -0.678217 
2.438 4.15 3.85 1.2712 1.2369 2.4368 0.2022 0.152876 -0.678389 
2.440 4.15 3.85 1.2508 1.2133 2.4392 0.2025 0.152876 -0.677888 
2.442 4.15 3.85 1.2676 1.2152 2.4417 0.2029 0.150285 -0.677480 
2.444 4.15 3.85 1.3225 1.2071 2.4441 0.2033 0.150285 -0.677133 
2.446 4.15 3.85 1.3062 1.2132 2.4465 0.2037 0.150285 -0.676594 
2.448 4.15 3.85 1.2482 1.1957 2.4491 0.2040 0.147694 -0.676179 
2.450 4.15 3.85 1.2701 1.1935 2.4515 0.2044 0.147694 -0.675781 
2.452 4.15 3.85 1.2713 1.2014 2.4538 0.2048 0.147694 -0.675440 
2.454 4.14 3.85 1.3095 1.2320 2.4564 0.2051 0.145103 -0.675337 
2.456 4.14 3.85 1.2465 1.2154 2.4588 0.2055 0.145103 -0.675570 
2.458 4.14 3.85 1.2867 1.2213 2.4612 0.2058 0.145103 -0.675718 
2.460 4.14 3.85 1.2679 1.2161 2.4636 0.2062 0.145103 -0.676063 
2.462 4.14 3.86 1.2591 1.2279 2.4662 0.2066 0.142512 -0.676774 
2.464 4.14 3.86 1.2486 1.2104 2.4686 0.2069 0.142512 -0.676637 
2.466 4.14 3.86 1.2513 1.2187 2.4711 0.2073 0.139921 -0.676573 
2.468 4.14 3.86 1.2963 1.2140 2.4735 0.2076 0.139921 -0.676810 
2.470 4.14 3.86 1.2579 1.2457 2.4759 0.2079 0.139921 -0.676399 
2.472 4.14 3.86 1.2833 1.2211 2.4783 0.2083 0.139921 -0.676316 
2.474 4.14 3.86 1.2398 1.2227 2.4809 0.2086 0.137329 -0.676467 
2.476 4.14 3.86 1.2541 1.2440 2.4835 0.2090 0.139921 -0.676366 
2.478 4.14 3.86 1.2619 1.1346 2.4859 0.2093 0.139921 -0.676486 
2.480 4.14 3.86 1.3067 1.2506 2.4884 0.2097 0.137329 -0.676539 
2.482 4.14 3.86 1.3201 1.1614 2.4908 0.2100 0.137329 -0.676620 
2.484 4.14 3.86 1.2767 1.1972 2.4932 0.2104 0.137329 -0.677098 
2.486 4.13 3.87 1.2744 1.2051 2.4958 0.2107 0.134738 -0.677432 
2.488 4.13 3.87 1.2562 1.1893 2.4982 0.2110 0.134738 -0.677298 
2.490 4.13 3.87 1.2811 1.1906 2.5008 0.2114 0.132147 -0.677554 
2.492 4.13 3.87 1.2974 1.2279 2.5032 0.2117 0.132147 -0.677852 
2.494 4.13 3.87 1.2756 1.1528 2.5056 0.2120 0.132147 -0.677567 
2.496 4.13 3.87 1.2781 1.2278 2.5081 0.2124 0.129556 -0.677047 
2.498 4.13 3.87 1.2519 1.1041 2.5105 0.2127 0.129556 -0.676088 
2.500 4.12 3.88 1.2757 1.1824 2.5129 0.2130 0.124374 -0.675175 
2.502 4.12 3.88 1.2918 1.2014 2.5153 0.2133 0.124374 -0.674393 
2.504 4.12 3.88 1.2611 1.1860 2.5177 0.2136 0.124374 -0.673975 
2.506 4.12 3.88 1.2852 1.1919 2.5203 0.2139 0.121783 -0.673829 
2.508 4.12 3.88 1.2692 1.1878 2.5227 0.2142 0.121783 -0.673778 
2.510 4.12 3.88 1.2919 1.2055 2.5251 0.2145 0.121783 -0.673985 
2.512 4.12 3.88 1.3253 1.1904 2.5277 0.2148 0.119192 -0.674504 
2.514 4.12 3.88 1.2824 1.1984 2.5301 0.2151 0.119192 -0.675097 
2.516 4.12 3.88 1.3251 1.1989 2.5325 0.2154 0.119192 -0.675906 
2.518 4.12 3.88 1.2615 1.2353 2.5350 0.2157 0.116600 -0.676675 
2.520 4.12 3.88 1.2922 1.2123 2.5374 0.2159 0.116600 -0.677066 
2.522 4.11 3.88 1.3025 1.2121 2.5400 0.2162 0.114009 -0.677428 
2.524 4.11 3.88 1.2808 1.2057 2.5424 0.2165 0.114009 -0.677635 
2.526 4.11 3.89 1.2838 1.2071 2.5450 0.2168 0.111418 -0.677530 
2.528 4.11 3.89 1.2597 1.1861 2.5474 0.2171 0.111418 -0.677297 
2.530 4.11 3.89 1.2908 1.1869 2.5498 0.2174 0.111418 -0.676932 
2.532 4.11 3.89 1.3093 1.1806 2.5524 0.2176 0.108827 -0.676473 
2.534 4.11 3.89 1.2789 1.1953 2.5548 0.2179 0.108827 -0.676035 
2.536 4.10 3.90 1.2797 1.1758 2.5572 0.2182 0.103645 -0.675569 
2.538 4.10 3.90 1.2825 1.1891 2.5596 0.2184 0.103645 -0.675224 
2.540 4.10 3.90 1.3244 1.1691 2.5622 0.2187 0.101054 -0.675070 
2.542 4.10 3.90 1.3373 1.2074 2.5646 0.2189 0.101054 -0.675052 
2.544 4.10 3.90 1.2932 1.1631 2.5670 0.2192 0.101054 -0.675484 
2.546 4.10 3.90 1.2942 1.1941 2.5696 0.2194 0.098463 -0.675899 
2.548 4.10 3.90 1.2687 1.1753 2.5720 0.2197 0.098463 -0.676320 
2.550 4.09 3.90 1.2895 1.2510 2.5746 0.2199 0.095872 -0.676723 
2.552 4.09 3.90 1.3059 1.1872 2.5770 0.2201 0.095872 -0.676863 
2.554 4.09 3.91 1.2708 1.2090 2.5796 0.2204 0.093280 -0.677034 
2.556 4.09 3.91 1.2796 1.1852 2.5820 0.2206 0.093280 -0.677108 
2.558 4.09 3.91 1.2507 1.2095 2.5844 0.2208 0.093280 -0.677042 
2.560 4.09 3.91 1.2643 1.1677 2.5870 0.2211 0.090689 -0.677046 
2.562 4.09 3.91 1.2865 1.1939 2.5894 0.2213 0.090689 -0.676994 
2.564 4.09 3.91 1.2526 1.1641 2.5918 0.2215 0.090689 -0.677216 
2.566 4.09 3.91 1.2547 1.1929 2.5944 0.2217 0.088098 -0.677329 
2.568 4.08 3.91 1.2565 1.1952 2.5966 0.2219 0.085507 -0.677253 
2.570 4.08 3.91 1.2783 1.2118 2.5990 0.2221 0.085507 -0.677380 
2.572 4.08 3.92 1.3060 1.2154 2.6016 0.2224 0.082916 -0.677251 
2.574 4.08 3.92 1.2521 1.1825 2.6040 0.2226 0.082916 -0.677123 
2.576 4.08 3.92 1.2953 1.2004 2.6064 0.2228 0.082916 -0.677505 
2.578 4.08 3.92 1.2483 1.1862 2.6088 0.2230 0.082916 -0.677626 
2.580 4.08 3.92 1.2700 1.1944 2.6112 0.2232 0.082916 -0.677085 
2.582 4.08 3.92 1.2461 1.1889 2.6138 0.2234 0.080325 -0.676784 
2.584 4.08 3.92 1.2242 1.1925 2.6162 0.2236 0.080325 -0.676143 
2.586 4.08 3.92 1.2417 1.2127 2.6186 0.2238 0.080325 -0.675375 
2.588 4.08 3.92 1.2501 1.2172 2.6210 0.2239 0.080325 -0.674702 
2.590 4.08 3.92 1.2863 1.1851 2.6236 0.2242 0.077734 -0.674273 
2.592 4.08 3.92 1.2303 1.2088 2.6260 0.2243 0.077734 -0.673868 
2.594 4.08 3.92 1.2730 1.1899 2.6284 0.2245 0.077734 -0.673604 
2.596 4.08 3.92 1.2520 1.2057 2.6308 0.2247 0.077734 -0.673546 
2.598 4.08 3.92 1.2605 1.2057 2.6334 0.2249 0.075143 -0.673692 
2.600 4.08 3.92 1.2337 1.2123 2.6358 0.2251 0.075143 -0.674167 
2.602 4.08 3.92 1.2542 1.2369 2.6382 0.2253 0.075143 -0.674500 
2.604 4.08 3.92 1.2330 1.2377 2.6406 0.2255 0.075143 -0.675011 
2.606 4.07 3.93 1.2586 1.2080 2.6432 0.2257 0.072551 -0.675570 
2.608 4.07 3.93 1.2848 1.2312 2.6456 0.2258 0.072551 -0.676014 
2.610 4.07 3.93 1.2540 1.2108 2.6480 0.2260 0.072551 -0.676198 
2.612 4.07 3.93 1.2578 1.2187 2.6506 0.2262 0.069960 -0.676145 
2.614 4.07 3.93 1.2620 1.2116 2.6530 0.2264 0.069960 -0.675843 
2.616 4.07 3.93 1.2868 1.2088 2.6554 0.2265 0.069960 -0.675471 
2.618 4.07 3.93 1.3200 1.2229 2.6580 0.2267 0.067369 -0.674825 
2.620 4.07 3.93 1.2768 1.2147 2.6604 0.2269 0.067369 -0.674303 
2.622 4.07 3.93 1.3194 1.1828 2.6628 0.2270 0.067369 -0.673839 
2.624 4.06 3.94 1.2542 1.2031 2.6654 0.2272 0.064778 -0.673262 
2.626 4.06 3.94 1.2840 1.1841 2.6679 0.2274 0.064778 -0.672871 
2.628 4.06 3.94 1.2778 1.2019 2.6703 0.2275 0.064778 -0.672729 
2.630 4.06 3.94 1.2723 1.1991 2.6729 0.2277 0.062187 -0.672711 
2.632 4.06 3.94 1.3123 1.2001 2.6753 0.2278 0.062187 -0.672639 
2.634 4.06 3.94 1.2532 1.2253 2.6779 0.2280 0.059596 -0.672697 
2.636 4.06 3.94 1.2837 1.2316 2.6803 0.2281 0.059596 -0.672815 
2.638 4.06 3.94 1.2519 1.2022 2.6827 0.2283 0.059596 -0.673046 
2.640 4.06 3.94 1.2724 1.2229 2.6853 0.2284 0.057005 -0.673386 
2.642 4.06 3.94 1.3006 1.2062 2.6877 0.2286 0.057005 -0.673601 
2.644 4.05 3.94 1.2781 1.2176 2.6903 0.2287 0.054414 -0.673658 
2.646 4.05 3.94 1.3019 1.2129 2.6927 0.2288 0.054414 -0.673809 
2.648 4.05 3.95 1.2578 1.2184 2.6953 0.2290 0.051822 -0.674076 
2.650 4.05 3.95 1.2895 1.2383 2.6977 0.2291 0.051822 -0.674185 
2.652 4.05 3.95 1.3332 1.2357 2.7001 0.2292 0.051822 -0.674177 
2.654 4.05 3.95 1.2659 1.2039 2.7027 0.2294 0.049231 -0.674076 
2.656 4.05 3.95 1.2967 1.2171 2.7051 0.2295 0.049231 -0.673814 
2.658 4.05 3.95 1.3041 1.1832 2.7078 0.2296 0.046640 -0.673406 
2.660 4.05 3.95 1.2820 1.1992 2.7102 0.2297 0.046640 -0.673231 
2.662 4.05 3.95 1.3211 1.1961 2.7126 0.2298 0.046640 -0.673235 
2.664 4.04 3.96 1.2610 1.1887 2.7152 0.2300 0.044049 -0.673281 
2.666 4.04 3.96 1.2909 1.2125 2.7176 0.2301 0.044049 -0.673178 
2.668 4.04 3.96 1.3087 1.2152 2.7202 0.2302 0.041458 -0.672963 
2.670 4.04 3.96 1.2770 1.1674 2.7226 0.2303 0.041458 -0.672370 
2.672 4.04 3.96 1.2770 1.2044 2.7250 0.2304 0.036276 -0.671853 
2.674 4.04 3.96 1.2801 1.1566 2.7274 0.2304 0.036276 -0.671366 
2.676 4.04 3.96 1.3022 1.1945 2.7298 0.2305 0.036276 -0.670977 
2.678 4.03 3.97 1.3337 1.1768 2.7324 0.2306 0.033685 -0.670833 
2.680 4.03 3.97 1.2877 1.1939 2.7348 0.2307 0.033685 -0.670929 
2.682 4.03 3.97 1.2887 1.2250 2.7374 0.2308 0.031093 -0.671044 
2.684 4.03 3.97 1.2609 1.2424 2.7399 0.2309 0.031093 -0.671291 
2.686 4.03 3.97 1.2929 1.1721 2.7423 0.2309 0.031093 -0.671851 
2.688 4.03 3.97 1.2998 1.2165 2.7449 0.2310 0.028502 -0.672333 
2.690 4.03 3.97 1.2784 1.1600 2.7473 0.2311 0.028502 -0.673214 
2.692 4.03 3.97 1.2814 1.2044 2.7499 0.2312 0.025911 -0.674002 
2.694 4.03 3.97 1.2564 1.1778 2.7523 0.2312 0.025911 -0.674425 
2.696 4.02 3.98 1.2804 1.1833 2.7549 0.2313 0.023320 -0.674660 
2.698 4.02 3.98 1.3035 1.1730 2.7571 0.2313 0.020729 -0.674655 
2.700 4.02 3.98 1.2712 1.1789 2.7595 0.2314 0.020729 -0.674350 
2.702 4.02 3.98 1.2682 1.1948 2.7621 0.2314 0.018138 -0.673949 
2.704 4.02 3.98 1.2703 1.1599 2.7645 0.2315 0.018138 -0.673495 
2.706 4.01 3.98 1.2855 1.1926 2.7672 0.2315 0.015547 -0.673127 
2.708 4.01 3.98 1.3103 1.1523 2.7696 0.2316 0.015547 -0.672681 
2.710 4.01 3.98 1.2576 1.1675 2.7720 0.2316 0.015547 -0.672285 
2.712 4.01 3.98 1.2959 1.1735 2.7744 0.2316 0.015547 -0.672118 
2.714 4.01 3.99 1.2452 1.1689 2.7766 0.2317 0.012956 -0.671911 
2.716 4.01 3.99 1.2567 1.1724 2.7792 0.2317 0.010364 -0.672260 
2.718 4.01 3.99 1.2494 1.2194 2.7816 0.2317 0.010364 -0.672626 
2.720 4.01 3.99 1.2281 1.1489 2.7840 0.2317 0.010364 -0.672531 
2.722 4.01 3.99 1.2805 1.2286 2.7866 0.2318 0.007773 -0.672850 
2.724 4.01 3.99 1.2353 1.1377 2.7890 0.2318 0.007773 -0.673019 
2.726 4.01 3.99 1.2924 1.1786 2.7915 0.2318 0.007773 -0.672802 
2.728 4.01 3.99 1.2329 1.1875 2.7939 0.2318 0.007773 -0.672942 
2.730 4.01 3.99 1.2742 1.1776 2.7963 0.2318 0.007773 -0.672751 
2.732 4.00 3.99 1.2353 1.1788 2.7989 0.2319 0.005182 -0.672485 
2.734 4.00 3.99 1.2434 1.2303 2.8013 0.2319 0.005182 -0.672433 
2.736 4.00 3.99 1.2348 1.1510 2.8037 0.2319 0.005182 -0.672299 
2.738 4.00 4.00 1.2512 1.2382 2.8063 0.2319 0.002591 -0.672239 
2.740 4.00 4.00 1.2849 1.1476 2.8087 0.2319 0.002591 -0.672146 
2.742 4.00 4.00 1.2527 1.1878 2.8111 0.2319 0.002591 -0.671979 
2.744 4.00 4.00 1.2760 1.1970 2.8135 0.2319 0.002591 -0.671823 
2.746 4.00 4.00 1.2434 1.1928 2.8162 0.2319 -0.000000 -0.671745 
2.748 4.00 4.00 1.2460 1.1831 2.8186 0.2319 -0.000000 -0.671688 
2.750 4.00 4.00 1.2532 1.2315 2.8210 0.2319 -0.000000 -0.671927 
2.752 4.00 4.00 1.2740 1.1530 2.8234 0.2319 -0.000000 -0.672252 
2.754 4.00 4.00 1.3072 1.2339 2.8260 0.2319 -0.002591 -0.672056 
2.757 4.00 4.00 1.2583 1.1953 2.8296 0.2319 -0.002591 -0.671341 
2.759 3.99 4.00 1.2271 1.1760 2.8318 0.2319 -0.005182 -0.670687 
2.761 3.99 4.01 1.2465 1.1929 2.8344 0.2319 -0.007773 -0.669964 
2.763 3.99 4.01 1.2710 1.2237 2.8368 0.2319 -0.007773 -0.669417 
2.765 3.99 4.01 1.2783 1.2469 2.8392 0.2318 -0.007773 -0.669067 
2.767 3.99 4.01 1.3096 1.1754 2.8417 0.2318 -0.007773 -0.668985 
2.769 3.99 4.01 1.2291 1.2302 2.8443 0.2318 -0.010364 -0.668993 
2.771 3.99 4.01 1.2541 1.1873 2.8467 0.2318 -0.010364 -0.669396 
2.773 3.99 4.01 1.2368 1.2314 2.8491 0.2318 -0.010364 -0.670012 
2.775 3.99 4.01 1.2505 1.2101 2.8517 0.2317 -0.012956 -0.670644 
2.777 3.99 4.01 1.3096 1.2275 2.8543 0.2317 -0.010364 -0.671728 
2.779 3.99 4.01 1.2964 1.2486 2.8567 0.2317 -0.010364 -0.672697 
2.781 3.99 4.01 1.2536 1.2492 2.8591 0.2316 -0.010364 -0.673085 
2.783 3.99 4.01 1.2584 1.2079 2.8617 0.2316 -0.012956 -0.673280 
2.785 3.99 4.01 1.2650 1.2225 2.8641 0.2316 -0.012956 -0.673056 
2.787 3.99 4.01 1.2439 1.1932 2.8666 0.2316 -0.012956 -0.672701 
2.789 3.98 4.01 1.2439 1.2018 2.8692 0.2315 -0.015547 -0.672136 
2.791 3.98 4.01 1.2836 1.1942 2.8716 0.2315 -0.015547 -0.671639 
2.793 3.98 4.01 1.2643 1.1979 2.8740 0.2314 -0.015547 -0.671241 
2.795 3.98 4.02 1.2838 1.2225 2.8766 0.2314 -0.018138 -0.670930 
2.797 3.98 4.02 1.2530 1.2298 2.8790 0.2314 -0.018138 -0.670691 
2.799 3.98 4.02 1.2767 1.1911 2.8814 0.2313 -0.018138 -0.670415 
2.801 3.98 4.02 1.3122 1.2145 2.8840 0.2313 -0.020729 -0.670060 
2.803 3.98 4.02 1.2773 1.1990 2.8864 0.2312 -0.020729 -0.670052 
2.805 3.98 4.02 1.3030 1.2110 2.8888 0.2312 -0.020729 -0.670103 
2.807 3.98 4.02 1.2555 1.2111 2.8915 0.2311 -0.023320 -0.670062 
2.809 3.98 4.02 1.2724 1.2114 2.8939 0.2310 -0.023320 -0.670236 
2.811 3.97 4.03 1.2745 1.2318 2.8965 0.2310 -0.025911 -0.670423 
2.813 3.97 4.03 1.3179 1.2353 2.8989 0.2309 -0.025911 -0.670448 
2.815 3.97 4.03 1.3279 1.1925 2.9013 0.2309 -0.025911 -0.670760 
2.817 3.97 4.03 1.2621 1.2174 2.9039 0.2308 -0.028502 -0.671023 
2.819 3.97 4.03 1.2836 1.1959 2.9063 0.2307 -0.028502 -0.671239 
2.821 3.97 4.03 1.3017 1.2049 2.9089 0.2306 -0.031093 -0.671438 
2.823 3.97 4.03 1.2788 1.2041 2.9113 0.2306 -0.031093 -0.671640 
2.825 3.97 4.03 1.2942 1.2016 2.9137 0.2305 -0.031093 -0.671749 
2.827 3.97 4.03 1.2550 1.2188 2.9163 0.2304 -0.033685 -0.671682 
2.829 3.97 4.03 1.2725 1.2214 2.9188 0.2303 -0.033685 -0.671625 
2.831 3.97 4.03 1.2479 1.1866 2.9212 0.2302 -0.033685 -0.671499 
2.833 3.96 4.04 1.2708 1.2138 2.9238 0.2301 -0.036276 -0.671498 
2.835 3.96 4.04 1.2984 1.1903 2.9262 0.2301 -0.036276 -0.672054 
2.837 3.96 4.04 1.2609 1.2003 2.9286 0.2300 -0.036276 -0.672935 
2.839 3.96 4.04 1.2623 1.1792 2.9310 0.2299 -0.041458 -0.673415 
2.841 3.96 4.04 1.2649 1.1937 2.9334 0.2298 -0.041458 -0.673492 
2.843 3.96 4.04 1.3051 1.2201 2.9360 0.2297 -0.044049 -0.673164 
2.845 3.96 4.04 1.3120 1.2335 2.9384 0.2296 -0.044049 -0.672611 
2.847 3.96 4.04 1.2643 1.1463 2.9408 0.2295 -0.044049 -0.671830 
2.849 3.96 4.04 1.2980 1.2008 2.9432 0.2294 -0.044049 -0.671201 
2.851 3.95 4.05 1.2307 1.1531 2.9458 0.2292 -0.046640 -0.670871 
2.853 3.95 4.05 1.2598 1.1968 2.9482 0.2291 -0.046640 -0.670804 
2.855 3.95 4.05 1.2525 1.1784 2.9507 0.2290 -0.046640 -0.670907 
2.857 3.95 4.05 1.2307 1.2006 2.9531 0.2289 -0.046640 -0.671192 
2.859 3.95 4.05 1.2817 1.2354 2.9557 0.2288 -0.049231 -0.671565 
2.861 3.95 4.05 1.2361 1.2568 2.9581 0.2287 -0.049231 -0.672031 
2.863 3.95 4.05 1.2936 1.1853 2.9605 0.2285 -0.049231 -0.672793 
2.865 3.95 4.05 1.2348 1.2301 2.9629 0.2284 -0.049231 -0.673588 
2.867 3.95 4.05 1.2438 1.1798 2.9655 0.2283 -0.051822 -0.673838 
2.869 3.95 4.05 1.2355 1.2153 2.9679 0.2282 -0.051822 -0.674172 
2.871 3.95 4.05 1.2438 1.1816 2.9703 0.2280 -0.051822 -0.674018 
2.873 3.95 4.05 1.2302 1.1932 2.9727 0.2279 -0.051822 -0.673937 
2.875 3.94 4.05 1.2333 1.2182 2.9753 0.2278 -0.054414 -0.673635 
2.877 3.94 4.05 1.2762 1.2270 2.9777 0.2276 -0.054414 -0.673104 
2.879 3.94 4.06 1.2351 1.1890 2.9799 0.2275 -0.057005 -0.672689 
2.881 3.94 4.06 1.2562 1.1591 2.9823 0.2274 -0.057005 -0.672149 
2.883 3.94 4.06 1.2277 1.1985 2.9847 0.2272 -0.057005 -0.671781 
2.885 3.94 4.06 1.2278 1.1644 2.9874 0.2271 -0.059596 -0.671501 
2.887 3.94 4.06 1.2322 1.1837 2.9898 0.2269 -0.059596 -0.671210 
2.889 3.94 4.06 1.2515 1.1991 2.9922 0.2268 -0.059596 -0.671218 
2.891 3.94 4.06 1.2123 1.1916 2.9946 0.2267 -0.059596 -0.671146 
2.893 3.94 4.06 1.2358 1.2035 2.9970 0.2265 -0.059596 -0.671262 
2.895 3.94 4.06 1.2842 1.2228 2.9996 0.2264 -0.062187 -0.671547 
2.897 3.94 4.06 1.2391 1.1906 3.0020 0.2262 -0.062187 -0.671527 
2.899 3.94 4.06 1.2895 1.2326 3.0044 0.2261 -0.062187 -0.671283 
2.901 3.94 4.06 1.2778 1.1901 3.0068 0.2259 -0.062187 -0.671270 
2.903 3.94 4.06 1.2346 1.2073 3.0092 0.2258 -0.062187 -0.671051 
2.905 3.94 4.06 1.2525 1.2193 3.0118 0.2256 -0.064778 -0.671194 
2.907 3.94 4.06 1.2455 1.2119 3.0142 0.2254 -0.064778 -0.671278 
2.909 3.94 4.06 1.2252 1.2204 3.0166 0.2253 -0.064778 -0.671163 
2.911 3.94 4.06 1.2449 1.2342 3.0190 0.2251 -0.064778 -0.671053 
2.913 3.94 4.06 1.2213 1.2028 3.0214 0.2250 -0.064778 -0.670897 
2.915 3.94 4.06 1.2490 1.1699 3.0240 0.2248 -0.062187 -0.670684 
2.917 3.94 4.06 1.2578 1.2288 3.0266 0.2246 -0.064778 -0.670354 
2.919 3.94 4.06 1.2348 1.2107 3.0290 0.2245 -0.064778 -0.670232 
2.921 3.94 4.06 1.2746 1.2296 3.0314 0.2243 -0.064778 -0.670341 
2.923 3.94 4.06 1.2285 1.2596 3.0338 0.2242 -0.064778 -0.670497 
2.925 3.93 4.07 1.2201 1.2810 3.0365 0.2240 -0.067369 -0.670862 
2.927 3.93 4.07 1.2199 1.2002 3.0389 0.2238 -0.067369 -0.671101 
2.929 3.93 4.07 1.2395 1.2341 3.0413 0.2237 -0.067369 -0.670722 
2.931 3.93 4.07 1.2302 1.1868 3.0437 0.2235 -0.067369 -0.669940 
2.933 3.93 4.07 1.2386 1.2192 3.0461 0.2233 -0.067369 -0.669128 
2.935 3.93 4.07 1.3154 1.1912 3.0487 0.2232 -0.069960 -0.668168 
2.937 3.93 4.07 1.2310 1.2085 3.0511 0.2230 -0.069960 -0.667238 
2.939 3.93 4.07 1.2769 1.2379 3.0535 0.2228 -0.069960 -0.666718 
2.941 3.93 4.07 1.2457 1.2593 3.0559 0.2227 -0.069960 -0.666576 
2.943 3.93 4.07 1.2400 1.1850 3.0585 0.2225 -0.072551 -0.666587 
2.945 3.93 4.07 1.2273 1.2411 3.0609 0.2223 -0.072551 -0.666847 
2.947 3.93 4.07 1.2459 1.1956 3.0633 0.2221 -0.072551 -0.667293 
2.949 3.93 4.07 1.2544 1.2332 3.0659 0.2219 -0.069960 -0.667754 
2.951 3.93 4.07 1.3031 1.2330 3.0685 0.2218 -0.072551 -0.668488 
2.953 3.93 4.07 1.3152 1.2401 3.0709 0.2216 -0.072551 -0.669017 
2.955 3.93 4.07 1.2707 1.2565 3.0733 0.2214 -0.072551 -0.669584 
2.957 3.92 4.08 1.2714 1.2610 3.0759 0.2212 -0.075143 -0.670243 
2.959 3.92 4.08 1.2465 1.2178 3.0783 0.2210 -0.075143 -0.670594 
2.961 3.92 4.08 1.2751 1.2330 3.0807 0.2208 -0.075143 -0.670390 
2.963 3.92 4.08 1.2821 1.2084 3.0833 0.2207 -0.077734 -0.670004 
2.965 3.92 4.08 1.2600 1.2163 3.0857 0.2205 -0.077734 -0.669414 
2.967 3.92 4.08 1.2963 1.2069 3.0881 0.2203 -0.077734 -0.668954 
2.969 3.92 4.08 1.2369 1.2038 3.0907 0.2201 -0.080325 -0.668611 
2.971 3.92 4.08 1.2645 1.2271 3.0931 0.2199 -0.080325 -0.668159 
2.973 3.92 4.08 1.2334 1.2318 3.0955 0.2197 -0.080325 -0.667890 
2.975 3.92 4.08 1.2533 1.2321 3.0981 0.2195 -0.077734 -0.667925 
2.977 3.92 4.08 1.2758 1.1612 3.1007 0.2193 -0.080325 -0.668031 
2.979 3.92 4.08 1.2844 1.2197 3.1031 0.2191 -0.080325 -0.668236 
2.981 3.92 4.08 1.3276 1.1966 3.1055 0.2189 -0.080325 -0.668529 
2.983 3.92 4.08 1.2335 1.2752 3.1081 0.2187 -0.082916 -0.668821 
2.985 3.92 4.08 1.2572 1.2211 3.1105 0.2185 -0.082916 -0.669431 
2.987 3.92 4.08 1.2384 1.2298 3.1129 0.2183 -0.082916 -0.669917 
2.989 3.91 4.08 1.2524 1.2130 3.1155 0.2181 -0.085507 -0.670365 
2.991 3.91 4.08 1.3079 1.2413 3.1179 0.2178 -0.085507 -0.670896 
2.993 3.91 4.08 1.2957 1.1861 3.1204 0.2176 -0.085507 -0.670946 
2.995 3.91 4.08 1.2502 1.2171 3.1228 0.2174 -0.085507 -0.671059 
2.997 3.91 4.09 1.2545 1.1914 3.1254 0.2172 -0.088098 -0.671320 
2.999 3.91 4.09 1.2591 1.2538 3.1278 0.2170 -0.088098 -0.671040 
3.001 3.91 4.09 1.2359 1.1959 3.1302 0.2168 -0.088098 -0.670740 
3.003 3.91 4.09 1.2564 1.2080 3.1326 0.2166 -0.088098 -0.670491 
3.005 3.91 4.09 1.2739 1.1834 3.1352 0.2163 -0.090689 -0.670134 
3.007 3.91 4.09 1.2525 1.2194 3.1376 0.2161 -0.090689 -0.670011 
3.009 3.91 4.09 1.2644 1.1766 3.1400 0.2159 -0.090689 -0.670030 
3.011 3.91 4.09 1.2431 1.2104 3.1424 0.2157 -0.090689 -0.670049 
3.013 3.91 4.09 1.2428 1.1893 3.1450 0.2154 -0.093280 -0.670000 
3.015 3.91 4.09 1.2083 1.2636 3.1474 0.2152 -0.093280 -0.670069 
3.017 3.91 4.09 1.2347 1.1996 3.1498 0.2150 -0.093280 -0.669600 
3.019 3.91 4.09 1.1981 1.2171 3.1522 0.2148 -0.093280 -0.669476 
3.021 3.91 4.09 1.2136 1.1893 3.1546 0.2145 -0.093280 -0.669125 
3.023 3.91 4.09 1.2053 1.2215 3.1569 0.2143 -0.093280 -0.668666 
3.025 3.91 4.09 1.2134 1.1780 3.1593 0.2141 -0.093280 -0.668406 
3.027 3.91 4.09 1.2032 1.2074 3.1617 0.2139 -0.093280 -0.668010 
3.029 3.90 4.09 1.2069 1.1877 3.1643 0.2136 -0.095872 -0.667850 
3.031 3.90 4.09 1.2510 1.2626 3.1667 0.2134 -0.095872 -0.667838 
3.033 3.90 4.09 1.2209 1.2094 3.1691 0.2132 -0.095872 -0.667858 
3.035 3.90 4.09 1.2436 1.2283 3.1715 0.2129 -0.095872 -0.667819 
3.037 3.90 4.09 1.2140 1.2042 3.1739 0.2127 -0.095872 -0.668006 
3.039 3.90 4.09 1.2406 1.2477 3.1763 0.2125 -0.095872 -0.667972 
3.041 3.91 4.09 1.2501 1.1974 3.1789 0.2122 -0.093280 -0.668208 
3.043 3.91 4.09 1.2908 1.2282 3.1813 0.2120 -0.093280 -0.668360 
3.045 3.91 4.09 1.2103 1.2136 3.1837 0.2118 -0.093280 -0.668336 
3.047 3.90 4.09 1.2249 1.2547 3.1863 0.2115 -0.095872 -0.668344 
3.049 3.90 4.09 1.2087 1.2264 3.1887 0.2113 -0.095872 -0.668308 
3.051 3.90 4.09 1.2237 1.2269 3.1911 0.2111 -0.095872 -0.668192 
3.053 3.90 4.09 1.2067 1.2238 3.1935 0.2108 -0.095872 -0.667983 
3.055 3.90 4.09 1.2215 1.2326 3.1959 0.2106 -0.095872 -0.667701 
3.057 3.90 4.09 1.2252 1.2064 3.1983 0.2104 -0.095872 -0.667092 
3.059 3.90 4.10 1.2440 1.2164 3.2009 0.2101 -0.098463 -0.666506 
3.061 3.90 4.10 1.2761 1.2164 3.2033 0.2099 -0.098463 -0.666036 
3.063 3.90 4.10 1.2346 1.2510 3.2057 0.2096 -0.098463 -0.665717 
3.065 3.90 4.09 1.2761 1.2113 3.2083 0.2094 -0.095872 -0.665485 
3.067 3.90 4.09 1.2291 1.2117 3.2107 0.2092 -0.095872 -0.665529 
3.069 3.90 4.09 1.2819 1.2637 3.2131 0.2089 -0.095872 -0.665461 
3.071 3.90 4.09 1.2706 1.1878 3.2155 0.2087 -0.095872 -0.665431 
3.073 3.90 4.09 1.2269 1.2803 3.2179 0.2085 -0.095872 -0.665830 
3.075 3.90 4.10 1.2331 1.1871 3.2205 0.2082 -0.098463 -0.666209 
3.077 3.90 4.09 1.2397 1.2307 3.2231 0.2080 -0.095872 -0.666460 
3.079 3.90 4.09 1.2189 1.2520 3.2255 0.2077 -0.095872 -0.666846 
3.081 3.90 4.09 1.2408 1.2418 3.2279 0.2075 -0.095872 -0.667096 
3.083 3.90 4.09 1.2183 1.2418 3.2303 0.2073 -0.095872 -0.667230 
3.085 3.90 4.10 1.2470 1.2293 3.2329 0.2070 -0.098463 -0.667525 
3.087 3.90 4.09 1.2551 1.2654 3.2355 0.2068 -0.095872 -0.667204 
3.089 3.90 4.09 1.2374 1.2015 3.2379 0.2065 -0.095872 -0.666811 
3.091 3.90 4.09 1.2739 1.2410 3.2403 0.2063 -0.095872 -0.666339 
3.093 3.90 4.09 1.2279 1.2185 3.2427 0.2061 -0.095872 -0.666017 
3.095 3.90 4.10 1.2461 1.2304 3.2453 0.2058 -0.098463 -0.665773 
3.097 3.90 4.10 1.2166 1.2643 3.2477 0.2056 -0.098463 -0.665505 
3.099 3.90 4.09 1.2388 1.2555 3.2503 0.2053 -0.095872 -0.665355 
3.101 3.90 4.09 1.2327 1.2314 3.2527 0.2051 -0.095872 -0.665075 
3.103 3.90 4.10 1.2419 1.2410 3.2553 0.2049 -0.098463 -0.664600 
3.105 3.90 4.10 1.3191 1.2307 3.2577 0.2046 -0.098463 -0.664411 
3.107 3.90 4.10 1.2353 1.2406 3.2601 0.2044 -0.098463 -0.664211 
3.109 3.90 4.10 1.2823 1.2385 3.2625 0.2041 -0.098463 -0.663597 
3.111 3.90 4.10 1.2495 1.2410 3.2649 0.2039 -0.098463 -0.663024 
3.113 3.90 4.10 1.2457 1.2538 3.2677 0.2036 -0.098463 -0.663019 
3.115 3.90 4.10 1.2282 1.2264 3.2701 0.2034 -0.098463 -0.662895 
3.117 3.90 4.10 1.2414 1.2661 3.2725 0.2032 -0.098463 -0.662976 
3.119 3.90 4.10 1.2446 1.2175 3.2749 0.2029 -0.098463 -0.663375 
3.121 3.90 4.10 1.2872 1.2427 3.2775 0.2027 -0.101054 -0.663599 
3.123 3.90 4.10 1.2966 1.2377 3.2801 0.2024 -0.098463 -0.664079 
3.125 3.90 4.10 1.2540 1.2715 3.2825 0.2022 -0.098463 -0.664689 
3.127 3.90 4.10 1.2720 1.2463 3.2851 0.2019 -0.101054 -0.665034 
3.129 3.90 4.10 1.2291 1.2426 3.2875 0.2017 -0.101054 -0.665410 
3.131 3.90 4.10 1.2562 1.2280 3.2899 0.2014 -0.101054 -0.665612 
3.133 3.90 4.10 1.2486 1.2358 3.2923 0.2012 -0.101054 -0.665831 
3.135 3.90 4.10 1.2257 1.2141 3.2949 0.2009 -0.098463 -0.666213 
3.137 3.90 4.10 1.2766 1.1804 3.2973 0.2007 -0.103645 -0.666382 
3.139 3.90 4.10 1.2231 1.2072 3.2998 0.2004 -0.101054 -0.666688 
3.141 3.90 4.10 1.2878 1.2177 3.3022 0.2002 -0.101054 -0.666533 
3.143 3.90 4.10 1.2271 1.1962 3.3046 0.1999 -0.101054 -0.666202 
3.145 3.90 4.10 1.2655 1.2054 3.3070 0.1997 -0.101054 -0.665727 
3.147 3.90 4.10 1.2240 1.2451 3.3096 0.1994 -0.103645 -0.665106 
3.149 3.90 4.10 1.2315 1.1709 3.3120 0.1991 -0.103645 -0.664852 
3.151 3.90 4.10 1.2193 1.2546 3.3144 0.1989 -0.103645 -0.664725 
3.153 3.90 4.10 1.2324 1.1637 3.3168 0.1987 -0.103645 -0.664660 
3.155 3.90 4.10 1.2096 1.2063 3.3192 0.1984 -0.103645 -0.664754 
3.157 3.89 4.11 1.2294 1.2144 3.3218 0.1981 -0.106236 -0.664966 
3.159 3.89 4.11 1.2497 1.2124 3.3242 0.1979 -0.106236 -0.665285 
3.161 3.90 4.10 1.2194 1.2305 3.3268 0.1976 -0.103645 -0.665644 
3.163 3.90 4.10 1.2428 1.2563 3.3292 0.1974 -0.103645 -0.666195 
3.165 3.90 4.10 1.2534 1.2202 3.3316 0.1971 -0.103645 -0.666630 
3.167 3.90 4.10 1.2929 1.2672 3.3340 0.1969 -0.103645 -0.666937 
3.169 3.90 4.10 1.2116 1.2187 3.3364 0.1966 -0.103645 -0.667537 
3.171 3.90 4.10 1.2477 1.2273 3.3388 0.1964 -0.103645 -0.668134 
3.173 3.90 4.10 1.2103 1.2420 3.3416 0.1961 -0.103645 -0.668113 
3.175 3.90 4.10 1.2008 1.2611 3.3440 0.1958 -0.103645 -0.667914 
3.177 3.90 4.10 1.1919 1.2749 3.3462 0.1956 -0.101054 -0.667770 
3.179 3.90 4.10 1.1884 1.2005 3.3488 0.1953 -0.103645 -0.667045 
3.181 3.90 4.10 1.1988 1.2458 3.3512 0.1951 -0.103645 -0.666788 
3.183 3.90 4.10 1.2186 1.1977 3.3536 0.1948 -0.103645 -0.666559 
3.185 3.90 4.10 1.1759 1.2333 3.3560 0.1946 -0.103645 -0.666058 
3.187 3.90 4.10 1.2000 1.2128 3.3584 0.1943 -0.103645 -0.665737 
3.189 3.90 4.10 1.1859 1.2251 3.3608 0.1941 -0.103645 -0.665327 
3.191 3.90 4.10 1.1965 1.2486 3.3634 0.1938 -0.101054 -0.664618 
3.193 3.90 4.10 1.1827 1.2535 3.3658 0.1936 -0.101054 -0.664220 
3.195 3.90 4.10 1.1971 1.2167 3.3682 0.1933 -0.101054 -0.663654 
3.197 3.90 4.10 1.2021 1.2445 3.3706 0.1931 -0.101054 -0.663150 
3.199 3.90 4.10 1.2210 1.2272 3.3730 0.1928 -0.101054 -0.662899 
3.201 3.90 4.10 1.1835 1.2448 3.3753 0.1926 -0.101054 -0.662700 
3.203 3.90 4.10 1.2022 1.2423 3.3777 0.1923 -0.101054 -0.662670 
3.205 3.90 4.10 1.1914 1.2462 3.3803 0.1921 -0.098463 -0.662854 
3.207 3.90 4.10 1.2037 1.2615 3.3827 0.1918 -0.098463 -0.663076 
3.209 3.90 4.10 1.1894 1.2349 3.3851 0.1916 -0.098463 -0.663422 
3.211 3.90 4.10 1.2032 1.2784 3.3875 0.1914 -0.098463 -0.663662 
3.213 3.90 4.09 1.2095 1.2488 3.3901 0.1911 -0.095872 -0.663840 
3.215 3.90 4.09 1.2300 1.2533 3.3925 0.1909 -0.095872 -0.663883 
3.217 3.90 4.09 1.1905 1.2467 3.3949 0.1907 -0.095872 -0.663772 
3.219 3.90 4.09 1.2141 1.2802 3.3973 0.1904 -0.095872 -0.663614 
3.221 3.91 4.09 1.1972 1.2247 3.3999 0.1902 -0.093280 -0.663381 
3.223 3.91 4.09 1.2106 1.2335 3.4023 0.1900 -0.093280 -0.663156 
3.225 3.90 4.09 1.2686 1.2901 3.4049 0.1897 -0.095872 -0.663119 
3.227 3.90 4.09 1.2575 1.2080 3.4073 0.1895 -0.095872 -0.662992 
3.229 3.91 4.09 1.2156 1.2749 3.4099 0.1892 -0.093280 -0.662658 
3.231 3.91 4.09 1.2596 1.2314 3.4123 0.1890 -0.093280 -0.662119 
3.233 3.91 4.09 1.2687 1.2431 3.4147 0.1888 -0.093280 -0.661545 
3.235 3.91 4.09 1.2298 1.2547 3.4171 0.1886 -0.093280 -0.661038 
3.237 3.91 4.09 1.2692 1.2881 3.4197 0.1883 -0.090689 -0.661129 
3.239 3.91 4.09 1.2241 1.3101 3.4221 0.1881 -0.090689 -0.661089 
3.241 3.91 4.09 1.2781 1.2297 3.4245 0.1879 -0.090689 -0.660906 
3.243 3.91 4.09 1.2023 1.2838 3.4271 0.1876 -0.093280 -0.661044 
3.245 3.91 4.09 1.2102 1.2512 3.4297 0.1874 -0.090689 -0.661271 
3.247 3.91 4.09 1.2293 1.2679 3.4321 0.1872 -0.090689 -0.661432 
3.249 3.91 4.09 1.2368 1.2649 3.4345 0.1870 -0.090689 -0.661677 
3.251 3.91 4.09 1.2168 1.2709 3.4371 0.1867 -0.088098 -0.661982 
3.253 3.91 4.09 1.2393 1.2845 3.4395 0.1865 -0.088098 -0.662278 
3.255 3.91 4.09 1.2163 1.2535 3.4419 0.1863 -0.088098 -0.662812 
3.257 3.91 4.09 1.2394 1.2773 3.4447 0.1861 -0.088098 -0.663508 
3.259 3.91 4.09 1.2458 1.2582 3.4471 0.1859 -0.088098 -0.663788 
3.261 3.91 4.09 1.2330 1.2647 3.4495 0.1856 -0.088098 -0.663766 
3.263 3.91 4.09 1.2694 1.2535 3.4519 0.1854 -0.088098 -0.663849 
3.265 3.91 4.08 1.2234 1.2466 3.4545 0.1852 -0.085507 -0.663390 
3.267 3.91 4.09 1.2399 1.2372 3.4571 0.1850 -0.088098 -0.663164 
3.269 3.91 4.09 1.2118 1.2299 3.4595 0.1848 -0.088098 -0.663344 
3.271 3.91 4.09 1.2295 1.2661 3.4619 0.1846 -0.088098 -0.663369 
3.273 3.91 4.09 1.2213 1.1892 3.4643 0.1843 -0.088098 -0.662970 
3.275 3.91 4.08 1.2282 1.2565 3.4669 0.1841 -0.085507 -0.662586 
3.277 3.91 4.09 1.2188 1.2156 3.4695 0.1839 -0.088098 -0.662179 
3.279 3.91 4.09 1.2212 1.2290 3.4719 0.1837 -0.088098 -0.661771 
3.281 3.91 4.09 1.2617 1.2445 3.4743 0.1835 -0.088098 -0.661499 
3.283 3.91 4.09 1.2305 1.2337 3.4767 0.1833 -0.088098 -0.661433 
3.285 3.91 4.08 1.2527 1.2986 3.4793 0.1830 -0.085507 -0.661589 
3.287 3.91 4.08 1.2165 1.2198 3.4817 0.1828 -0.085507 -0.662119 
3.289 3.91 4.08 1.2409 1.2791 3.4841 0.1826 -0.085507 -0.662639 
3.291 3.91 4.09 1.2313 1.2284 3.4867 0.1824 -0.088098 -0.663293 
3.293 3.91 4.08 1.2352 1.2620 3.4893 0.1822 -0.085507 -0.663845 
3.295 3.91 4.08 1.1972 1.2611 3.4917 0.1820 -0.085507 -0.664511 
3.297 3.91 4.08 1.2108 1.2575 3.4941 0.1818 -0.085507 -0.665351 
3.299 3.91 4.08 1.1925 1.2797 3.4965 0.1815 -0.085507 -0.666178 
3.301 3.92 4.08 1.2071 1.2261 3.4991 0.1813 -0.082916 -0.666226 
3.303 3.92 4.08 1.1912 1.2628 3.5015 0.1811 -0.082916 -0.666358 
3.305 3.92 4.08 1.2018 1.2048 3.5039 0.1809 -0.082916 -0.666262 
3.307 3.92 4.08 1.2023 1.2366 3.5063 0.1807 -0.082916 -0.666016 
3.309 3.92 4.08 1.2166 1.2131 3.5087 0.1805 -0.082916 -0.665661 
3.311 3.92 4.08 1.1752 1.2912 3.5111 0.1803 -0.082916 -0.665395 
3.313 3.92 4.08 1.1851 1.2374 3.5137 0.1801 -0.080325 -0.665184 
3.315 3.92 4.08 1.1697 1.2478 3.5162 0.1799 -0.080325 -0.665238 
3.317 3.92 4.08 1.1781 1.2443 3.5186 0.1797 -0.080325 -0.665188 
3.319 3.92 4.08 1.1647 1.2508 3.5210 0.1795 -0.080325 -0.665104 
3.321 3.92 4.08 1.1811 1.2365 3.5234 0.1793 -0.080325 -0.664844 
3.323 3.92 4.08 1.1873 1.2435 3.5258 0.1791 -0.080325 -0.664889 
3.325 3.92 4.08 1.2057 1.2304 3.5284 0.1789 -0.077734 -0.664656 
3.327 3.92 4.08 1.1689 1.2261 3.5308 0.1788 -0.077734 -0.664899 
3.329 3.92 4.08 1.1929 1.2291 3.5332 0.1786 -0.077734 -0.665088 
3.331 3.92 4.08 1.1818 1.2243 3.5356 0.1784 -0.077734 -0.665040 
3.333 3.93 4.07 1.2160 1.2583 3.5380 0.1782 -0.072551 -0.665064 
3.335 3.93 4.07 1.1894 1.2278 3.5404 0.1780 -0.072551 -0.665092 
3.337 3.93 4.07 1.2135 1.2707 3.5428 0.1778 -0.072551 -0.665170 
3.339 3.93 4.07 1.2268 1.2302 3.5452 0.1777 -0.072551 -0.665197 
3.341 3.93 4.07 1.2281 1.2488 3.5476 0.1775 -0.072551 -0.665229 
3.343 3.93 4.07 1.1913 1.2649 3.5502 0.1773 -0.069960 -0.665192 
3.345 3.93 4.07 1.2063 1.2972 3.5528 0.1771 -0.072551 -0.665228 
3.347 3.93 4.07 1.1921 1.3156 3.5552 0.1769 -0.072551 -0.665310 
3.349 3.93 4.07 1.2012 1.2589 3.5578 0.1768 -0.069960 -0.665154 
3.351 3.93 4.07 1.1863 1.2798 3.5602 0.1766 -0.069960 -0.664627 
3.353 3.93 4.07 1.2006 1.2591 3.5626 0.1764 -0.069960 -0.664456 
3.355 3.93 4.07 1.2078 1.2745 3.5650 0.1763 -0.069960 -0.664447 
3.357 3.93 4.07 1.2215 1.3214 3.5676 0.1761 -0.067369 -0.664378 
3.359 3.93 4.07 1.1845 1.2548 3.5700 0.1759 -0.067369 -0.664112 
3.361 3.93 4.07 1.2049 1.2739 3.5724 0.1758 -0.067369 -0.663689 
3.363 3.94 4.06 1.1797 1.2573 3.5750 0.1756 -0.064778 -0.663065 
3.365 3.94 4.06 1.1878 1.2699 3.5774 0.1754 -0.064778 -0.662331 
3.367 3.94 4.06 1.1742 1.2513 3.5798 0.1753 -0.064778 -0.661855 
3.369 3.94 4.06 1.1883 1.2541 3.5822 0.1751 -0.064778 -0.661642 
3.371 3.94 4.06 1.1958 1.2507 3.5848 0.1750 -0.062187 -0.661300 
3.373 3.94 4.06 1.2165 1.2571 3.5873 0.1748 -0.062187 -0.661478 
3.375 3.94 4.06 1.1797 1.2558 3.5897 0.1747 -0.062187 -0.661541 
3.377 3.94 4.06 1.1971 1.2721 3.5923 0.1745 -0.059596 -0.661708 
3.379 3.94 4.06 1.1895 1.2936 3.5947 0.1744 -0.059596 -0.662460 
3.381 3.94 4.06 1.2031 1.3045 3.5973 0.1742 -0.057005 -0.663278 
3.383 3.94 4.06 1.1894 1.2548 3.5997 0.1741 -0.057005 -0.663239 
3.385 3.94 4.06 1.2066 1.2960 3.6021 0.1739 -0.057005 -0.663979 
3.387 3.94 4.05 1.2117 1.2783 3.6047 0.1738 -0.054414 -0.664612 
3.389 3.94 4.05 1.2288 1.2806 3.6071 0.1736 -0.054414 -0.664616 
3.391 3.94 4.05 1.1894 1.2992 3.6095 0.1735 -0.054414 -0.664580 
3.393 3.95 4.05 1.2124 1.2535 3.6121 0.1734 -0.051822 -0.664161 
3.395 3.95 4.05 1.1954 1.2788 3.6145 0.1733 -0.051822 -0.663792 
3.397 3.95 4.05 1.2050 1.2317 3.6169 0.1731 -0.051822 -0.663510 
3.399 3.95 4.05 1.1941 1.2591 3.6197 0.1730 -0.051822 -0.663234 
3.401 3.95 4.05 1.2529 1.2608 3.6221 0.1729 -0.051822 -0.662881 
3.403 3.95 4.05 1.2109 1.2959 3.6245 0.1727 -0.051822 -0.662517 
3.405 3.95 4.05 1.2548 1.2746 3.6270 0.1726 -0.051822 -0.662601 
3.407 3.95 4.05 1.2622 1.2527 3.6296 0.1725 -0.049231 -0.662756 
3.409 3.95 4.05 1.2179 1.3057 3.6320 0.1724 -0.049231 -0.662907 
3.411 3.95 4.05 1.2596 1.2248 3.6346 0.1722 -0.046640 -0.663131 
3.413 3.95 4.05 1.2167 1.2938 3.6370 0.1721 -0.046640 -0.663457 
3.415 3.95 4.05 1.2676 1.2495 3.6394 0.1720 -0.046640 -0.663442 
3.417 3.95 4.05 1.2572 1.2676 3.6418 0.1719 -0.046640 -0.663342 
3.419 3.96 4.04 1.2147 1.2784 3.6444 0.1718 -0.044049 -0.663198 
3.421 3.96 4.04 1.2578 1.3072 3.6468 0.1717 -0.044049 -0.663189 
3.423 3.96 4.04 1.2235 1.3049 3.6496 0.1716 -0.044049 -0.663430 
3.425 3.96 4.04 1.2086 1.2595 3.6520 0.1714 -0.044049 -0.663548 
3.427 3.96 4.04 1.2245 1.2884 3.6544 0.1713 -0.044049 -0.663687 
3.429 3.96 4.04 1.2022 1.2730 3.6570 0.1712 -0.041458 -0.664012 
3.431 3.96 4.04 1.2294 1.2492 3.6594 0.1711 -0.041458 -0.664222 
3.433 3.96 4.04 1.2224 1.3255 3.6619 0.1710 -0.041458 -0.664364 
3.435 3.96 4.04 1.1998 1.2716 3.6645 0.1709 -0.038867 -0.664457 
3.437 3.96 4.04 1.2140 1.2734 3.6669 0.1708 -0.038867 -0.664640 
3.439 3.96 4.04 1.2146 1.2669 3.6693 0.1707 -0.038867 -0.664993 
3.441 3.96 4.04 1.1847 1.1857 3.6719 0.1706 -0.036276 -0.665944 
3.443 3.96 4.04 1.2067 1.2952 3.6743 0.1706 -0.036276 -0.667245 
3.445 3.96 4.04 1.1758 1.1949 3.6767 0.1705 -0.036276 -0.667794 
3.447 3.96 4.04 1.1969 1.2314 3.6791 0.1704 -0.036276 -0.668269 
3.449 3.96 4.04 1.1914 1.2320 3.6815 0.1703 -0.036276 -0.667661 
3.451 3.96 4.04 1.1670 1.2117 3.6839 0.1702 -0.036276 -0.667246 
3.453 3.97 4.03 1.1774 1.2348 3.6865 0.1701 -0.033685 -0.666414 
3.455 3.97 4.03 1.1793 1.2489 3.6889 0.1700 -0.033685 -0.665747 
3.457 3.97 4.03 1.1614 1.2193 3.6914 0.1699 -0.033685 -0.665496 
3.459 3.97 4.03 1.1921 1.2620 3.6938 0.1699 -0.033685 -0.665440 
3.461 3.97 4.03 1.1833 1.2205 3.6960 0.1698 -0.031093 -0.665596 
3.463 3.97 4.03 1.2340 1.2401 3.6986 0.1697 -0.028502 -0.665900 
3.465 3.97 4.03 1.2268 1.2561 3.7010 0.1697 -0.028502 -0.666150 
3.467 3.97 4.03 1.1856 1.2880 3.7034 0.1696 -0.028502 -0.666644 
3.469 3.97 4.03 1.2324 1.3113 3.7058 0.1695 -0.028502 -0.667592 
3.471 3.97 4.03 1.2429 1.2549 3.7084 0.1694 -0.025911 -0.668373 
3.473 3.97 4.03 1.2051 1.2780 3.7108 0.1694 -0.025911 -0.668941 
3.475 3.97 4.03 1.2465 1.2607 3.7132 0.1693 -0.025911 -0.669487 
3.477 3.98 4.02 1.2037 1.2505 3.7158 0.1693 -0.023320 -0.669680 
3.479 3.98 4.02 1.2509 1.3304 3.7183 0.1692 -0.023320 -0.669246 
3.481 3.98 4.02 1.2370 1.2687 3.7207 0.1691 -0.023320 -0.668764 
3.483 3.98 4.02 1.1911 1.2807 3.7233 0.1691 -0.020729 -0.668103 
3.485 3.98 4.02 1.2276 1.2722 3.7257 0.1690 -0.020729 -0.667538 
3.487 3.98 4.02 1.2270 1.2777 3.7281 0.1690 -0.020729 -0.666888 
3.489 3.98 4.02 1.1881 1.3093 3.7307 0.1689 -0.018138 -0.666465 
3.491 3.98 4.02 1.2292 1.2116 3.7331 0.1689 -0.018138 -0.666346 
3.493 3.98 4.02 1.1885 1.2564 3.7355 0.1688 -0.018138 -0.666237 
3.495 3.98 4.01 1.2401 1.2748 3.7381 0.1688 -0.015547 -0.666354 
3.497 3.98 4.01 1.2325 1.2671 3.7405 0.1688 -0.015547 -0.666535 
3.499 3.98 4.01 1.1930 1.2746 3.7430 0.1687 -0.015547 -0.666724 
3.501 3.99 4.01 1.2394 1.2498 3.7456 0.1687 -0.012956 -0.667282 
3.503 3.99 4.01 1.2481 1.3062 3.7480 0.1687 -0.012956 -0.667605 
3.505 3.99 4.01 1.2040 1.2503 3.7504 0.1686 -0.012956 -0.667152 
3.507 3.99 4.01 1.2437 1.2858 3.7530 0.1686 -0.010364 -0.667195 
3.509 3.99 4.01 1.2005 1.2803 3.7554 0.1686 -0.010364 -0.667248 
3.511 3.99 4.01 1.2501 1.2775 3.7580 0.1685 -0.007773 -0.667154 
3.513 3.99 4.01 1.2315 1.2946 3.7604 0.1685 -0.007773 -0.666951 
3.515 3.99 4.01 1.1907 1.2632 3.7628 0.1685 -0.007773 -0.666777 
3.517 3.99 4.00 1.2301 1.2910 3.7654 0.1685 -0.005182 -0.666644 
3.519 3.99 4.00 1.2282 1.2722 3.7679 0.1685 -0.005182 -0.666465 
3.521 4.00 4.00 1.1791 1.2833 3.7701 0.1685 -0.002591 -0.666328 
3.523 4.00 4.00 1.1621 1.2692 3.7727 0.1685 0.000000 -0.666241 
3.525 4.00 4.00 1.1746 1.2739 3.7751 0.1685 0.000000 -0.666206 
3.527 4.00 4.00 1.1660 1.2791 3.7777 0.1685 0.002591 -0.666611 
3.529 4.00 4.00 1.1824 1.2860 3.7801 0.1685 0.002591 -0.667253 
3.531 4.00 3.99 1.1898 1.2586 3.7827 0.1685 0.005182 -0.667399 
3.533 4.00 3.99 1.2072 1.3126 3.7851 0.1685 0.005182 -0.667311 
3.535 4.00 3.99 1.1707 1.2571 3.7875 0.1685 0.005182 -0.666901 
3.537 4.01 3.99 1.1890 1.2854 3.7901 0.1685 0.007773 -0.665832 
3.539 4.01 3.99 1.1731 1.2799 3.7926 0.1685 0.007773 -0.664836 
3.541 4.01 3.99 1.1859 1.2770 3.7950 0.1686 0.007773 -0.664071 
3.543 4.01 3.99 1.1764 1.2845 3.7976 0.1686 0.010365 -0.663617 
3.545 4.01 3.99 1.1900 1.2572 3.8000 0.1686 0.010365 -0.663290 
3.547 4.01 3.99 1.1955 1.2880 3.8026 0.1686 0.012956 -0.663296 
3.549 4.01 3.99 1.2171 1.2701 3.8050 0.1687 0.012956 -0.663330 
3.551 4.01 3.99 1.1816 1.2783 3.8074 0.1687 0.012956 -0.663906 
3.553 4.01 3.98 1.2090 1.2670 3.8100 0.1687 0.015547 -0.664805 
3.555 4.01 3.98 1.1968 1.2724 3.8124 0.1688 0.015547 -0.665406 
3.557 4.01 3.98 1.2110 1.2696 3.8148 0.1688 0.015547 -0.666112 
3.559 4.02 3.98 1.1966 1.2841 3.8174 0.1689 0.018138 -0.666807 
3.561 4.02 3.98 1.2129 1.3040 3.8199 0.1689 0.018138 -0.667205 
3.563 4.02 3.98 1.2169 1.3156 3.8225 0.1690 0.020729 -0.667348 
3.565 4.02 3.98 1.2344 1.2614 3.8249 0.1690 0.020729 -0.667292 
3.567 4.02 3.98 1.1934 1.3056 3.8275 0.1691 0.018138 -0.666702 
3.569 4.02 3.98 1.2068 1.2898 3.8299 0.1691 0.023320 -0.666219 
3.571 4.02 3.98 0.0000 1.2895 3.8325 0.1692 0.020729 -0.665633 
3.573 4.03 3.97 1.2705 1.2958 3.8349 0.1692 0.025911 -0.665147 
3.575 4.02 3.98 1.1823 1.2616 3.8375 0.1693 0.023320 -0.664725 
3.577 4.03 3.97 1.1950 1.2785 3.8401 0.1694 0.025911 -0.664467 
3.579 4.03 3.97 1.2046 1.2612 3.8425 0.1694 0.025911 -0.664374 
3.581 4.03 3.97 1.2428 1.2697 3.8450 0.1695 0.025911 -0.664736 
3.583 4.03 3.97 1.2431 1.2650 3.8474 0.1696 0.025911 -0.665185 
3.585 4.03 3.97 1.2056 1.2639 3.8500 0.1696 0.028502 -0.665720 
3.587 4.03 3.97 1.2447 1.2594 3.8524 0.1697 0.028502 -0.666437 
3.589 4.03 3.97 1.1939 1.2588 3.8548 0.1698 0.028502 -0.666969 
3.591 4.03 3.97 1.2526 1.2962 3.8574 0.1698 0.031093 -0.667247 
3.593 4.03 3.97 1.2441 1.2604 3.8598 0.1699 0.031093 -0.667858 
3.595 4.03 3.97 1.1992 1.2524 3.8624 0.1700 0.033685 -0.668181 
3.597 4.03 3.97 1.2366 1.2921 3.8648 0.1701 0.033685 -0.668154 
3.599 4.03 3.97 1.2410 1.2657 3.8672 0.1702 0.033685 -0.668326 
3.601 4.04 3.96 1.1931 1.2787 3.8698 0.1703 0.036276 -0.668250 
3.603 4.04 3.96 1.1632 1.3023 3.8723 0.1703 0.036276 -0.667947 
3.605 4.04 3.96 1.1777 1.3075 3.8745 0.1704 0.038867 -0.667907 
3.607 4.04 3.96 1.1648 1.3016 3.8771 0.1705 0.041458 -0.667772 
3.609 4.04 3.96 1.1754 1.2452 3.8795 0.1706 0.041458 -0.667539 
3.611 4.04 3.96 1.1821 1.2766 3.8821 0.1707 0.044049 -0.667416 
3.613 4.04 3.96 1.2029 1.2701 3.8845 0.1708 0.044049 -0.667496 
3.615 4.04 3.96 1.1588 1.3013 3.8869 0.1710 0.044049 -0.667645 
3.617 4.05 3.95 1.1833 1.2431 3.8895 0.1711 0.046640 -0.667773 
3.619 4.05 3.95 1.1595 1.2547 3.8919 0.1712 0.046640 -0.667734 
3.621 4.05 3.95 1.1672 1.3007 3.8943 0.1713 0.046640 -0.667466 
3.623 4.05 3.95 1.1689 1.2470 3.8967 0.1714 0.051822 -0.666913 
3.625 4.05 3.95 1.1942 1.2853 3.8991 0.1715 0.051822 -0.666741 
3.627 4.05 3.95 1.2035 1.2364 3.9015 0.1717 0.051822 -0.666094 
3.629 4.05 3.95 1.2390 1.2549 3.9039 0.1718 0.051822 -0.665393 
3.631 4.05 3.94 1.1615 1.2679 3.9066 0.1719 0.054414 -0.665190 
3.633 4.05 3.94 1.2050 1.3007 3.9090 0.1721 0.054414 -0.664978 
3.635 4.05 3.94 1.1729 1.3204 3.9114 0.1722 0.054414 -0.665118 
3.637 4.06 3.94 1.1972 1.2604 3.9140 0.1723 0.057005 -0.665377 
3.639 4.06 3.94 1.1759 1.2844 3.9164 0.1725 0.057005 -0.665617 
3.641 4.06 3.94 1.2038 1.2636 3.9188 0.1726 0.057005 -0.665931 
3.643 4.06 3.94 1.2182 1.2528 3.9214 0.1728 0.059596 -0.666316 
3.645 4.06 3.94 1.2598 1.3328 3.9238 0.1729 0.059596 -0.666680 
3.647 4.06 3.94 1.1912 1.2750 3.9260 0.1730 0.062187 -0.666996 
3.649 4.06 3.94 1.1656 1.2848 3.9286 0.1732 0.064778 -0.667010 
3.651 4.06 3.94 1.1873 1.2781 3.9310 0.1734 0.064778 -0.666887 
3.653 4.07 3.93 1.1635 1.2314 3.9336 0.1735 0.067369 -0.666984 
3.655 4.07 3.93 1.1789 1.3212 3.9360 0.1737 0.067369 -0.666740 
3.657 4.07 3.93 1.1739 1.2216 3.9384 0.1739 0.067369 -0.666457 
3.659 4.07 3.93 1.1797 1.2721 3.9410 0.1740 0.069960 -0.665760 
3.661 4.07 3.93 1.1613 1.2820 3.9434 0.1742 0.069960 -0.664970 
3.663 4.07 3.93 1.1783 1.2736 3.9458 0.1744 0.069960 -0.664533 
3.665 4.07 3.93 1.1595 1.3384 3.9484 0.1746 0.072551 -0.664462 
3.667 4.07 3.93 1.1862 1.2579 3.9508 0.1747 0.072551 -0.664276 
3.669 4.08 3.92 1.1637 1.2998 3.9534 0.1749 0.075143 -0.664418 
3.671 4.08 3.92 1.1758 1.2771 3.9558 0.1751 0.075143 -0.664481 
3.673 4.08 3.92 1.2005 1.2938 3.9581 0.1753 0.077734 -0.664593 
3.675 4.08 3.92 1.2145 1.3474 3.9607 0.1755 0.080325 -0.664921 
3.677 4.08 3.92 1.1992 1.2884 3.9631 0.1757 0.080325 -0.665152 
3.679 4.08 3.92 1.1984 1.2999 3.9659 0.1759 0.080325 -0.665169 
3.681 4.08 3.92 1.1791 1.2907 3.9681 0.1761 0.082916 -0.665314 
3.683 4.08 3.92 1.2152 1.2440 3.9709 0.1763 0.082916 -0.665434 
3.685 4.08 3.91 1.1834 1.3364 3.9731 0.1765 0.085507 -0.665626 
3.687 4.09 3.91 1.2227 1.2721 3.9757 0.1767 0.088098 -0.665669 
3.689 4.09 3.91 1.2063 1.2875 3.9781 0.1769 0.088098 -0.665508 
3.691 4.09 3.91 1.2207 1.2960 3.9809 0.1772 0.088098 -0.665231 
3.693 4.09 3.91 1.1941 1.3302 3.9831 0.1774 0.090689 -0.664811 
3.695 4.09 3.91 1.1879 1.3352 3.9859 0.1776 0.090689 -0.664549 
3.697 4.09 3.91 1.1755 1.2887 3.9881 0.1778 0.093280 -0.664589 
3.699 4.09 3.91 1.2249 1.3114 3.9905 0.1780 0.093280 -0.664693 
3.701 4.09 3.90 1.1608 1.3016 3.9931 0.1783 0.095872 -0.664769 
3.703 4.09 3.90 1.2032 1.2763 3.9955 0.1785 0.095872 -0.664816 
3.705 4.10 3.90 1.1913 1.3278 3.9981 0.1788 0.098463 -0.664448 
3.707 4.10 3.90 1.2015 1.3027 4.0005 0.1790 0.098463 -0.664053 
3.709 4.10 3.90 1.1846 1.2778 4.0031 0.1793 0.101054 -0.663527 
3.711 4.10 3.90 1.2197 1.3300 4.0055 0.1795 0.101054 -0.662950 
3.713 4.10 3.90 1.1693 1.2762 4.0081 0.1798 0.103645 -0.662479 
3.715 4.10 3.90 1.2250 1.3163 4.0104 0.1800 0.103645 -0.662272 
3.717 4.11 3.89 1.1767 1.2700 4.0130 0.1803 0.106236 -0.662410 
3.719 4.11 3.89 1.2185 1.2800 4.0154 0.1806 0.106236 -0.662440 
3.721 4.11 3.89 1.2057 1.2976 4.0178 0.1808 0.106236 -0.662648 
3.723 4.11 3.89 1.2227 1.3186 4.0204 0.1811 0.108827 -0.663321 
3.725 4.11 3.89 1.2085 1.3207 4.0228 0.1814 0.108827 -0.663798 
3.727 4.11 3.89 1.2456 1.3195 4.0254 0.1816 0.111418 -0.664336 
3.729 4.11 3.89 1.2057 1.2637 4.0278 0.1819 0.111418 -0.665133 
3.731 4.11 3.88 1.2621 1.2891 4.0304 0.1822 0.114009 -0.665445 
3.733 4.11 3.88 1.2003 1.2862 4.0328 0.1825 0.114009 -0.665795 
3.735 4.12 3.88 1.2419 1.2713 4.0354 0.1828 0.116600 -0.666016 
3.737 4.12 3.88 1.2145 1.2772 4.0378 0.1831 0.116600 -0.665865 
3.739 4.12 3.88 1.2196 1.2719 4.0402 0.1833 0.116600 -0.665598 
3.741 4.12 3.88 1.1961 1.3023 4.0428 0.1836 0.119192 -0.665430 
3.743 4.12 3.88 1.2247 1.2578 4.0452 0.1839 0.119192 -0.665222 
3.745 4.12 3.88 1.1714 1.2447 4.0478 0.1842 0.121783 -0.664928 
3.747 4.12 3.88 1.2249 1.2797 4.0502 0.1845 0.121783 -0.664657 
3.749 4.12 3.88 1.1761 1.2522 4.0525 0.1848 0.121783 -0.664664 
3.751 4.12 3.88 1.2190 1.2711 4.0549 0.1851 0.121783 -0.664870 
3.753 4.12 3.88 1.2043 1.2919 4.0575 0.1854 0.124374 -0.665248 
3.755 4.12 3.88 1.2206 1.2962 4.0599 0.1857 0.124374 -0.665574 
3.757 4.13 3.87 1.1951 1.2593 4.0625 0.1861 0.126965 -0.665789 
3.759 4.13 3.87 1.2275 1.2402 4.0649 0.1864 0.126965 -0.665786 
3.761 4.13 3.87 1.1818 1.2751 4.0673 0.1867 0.126965 -0.666017 
3.763 4.13 3.87 1.2300 1.2480 4.0697 0.1870 0.126965 -0.666353 
3.765 4.13 3.87 1.1643 1.2978 4.0723 0.1873 0.129556 -0.666470 
3.767 4.13 3.87 1.2085 1.2760 4.0747 0.1876 0.129556 -0.666690 
3.769 4.13 3.87 1.1924 1.2775 4.0770 0.1879 0.129556 -0.666795 
3.771 4.13 3.87 1.2051 1.3040 4.0796 0.1883 0.132147 -0.666926 
3.773 4.13 3.87 1.1893 1.2235 4.0820 0.1886 0.132147 -0.666932 
3.775 4.13 3.87 1.2128 1.3119 4.0844 0.1889 0.132147 -0.666949 
3.777 4.14 3.86 1.1818 1.2480 4.0868 0.1892 0.137329 -0.666850 
3.779 4.14 3.86 1.1575 1.2623 4.0892 0.1896 0.137329 -0.666826 
3.781 4.14 3.86 1.1718 1.2732 4.0916 0.1899 0.137329 -0.666922 
3.783 4.14 3.86 1.1521 1.3073 4.0942 0.1903 0.139921 -0.667184 
3.785 4.14 3.86 1.1716 1.3253 4.0965 0.1906 0.139921 -0.667313 
3.787 4.14 3.86 1.1796 1.2472 4.0991 0.1910 0.142512 -0.667659 
3.789 4.14 3.86 1.1535 1.2884 4.1015 0.1913 0.142512 -0.667593 
3.791 4.14 3.85 1.2063 1.2675 4.1037 0.1916 0.145103 -0.666991 
3.793 4.14 3.85 1.2081 1.2796 4.1061 0.1920 0.145103 -0.666368 
3.795 4.15 3.85 1.1666 1.3322 4.1087 0.1924 0.147694 -0.665749 
3.797 4.15 3.85 1.2057 1.2747 4.1111 0.1927 0.147694 -0.664862 
3.799 4.15 3.85 1.1652 1.2841 4.1136 0.1931 0.150285 -0.664355 
3.801 4.15 3.85 1.2191 1.2734 4.1160 0.1935 0.150285 -0.664028 
3.803 4.15 3.85 1.1698 1.2905 4.1182 0.1938 0.152876 -0.663907 
3.805 4.16 3.84 1.1812 1.3250 4.1208 0.1942 0.155467 -0.663981 
3.807 4.16 3.84 1.2053 1.2271 4.1232 0.1946 0.155467 -0.664185 
3.809 4.16 3.84 1.1727 1.2819 4.1255 0.1949 0.155467 -0.664399 
3.811 4.16 3.84 1.2022 1.3016 4.1281 0.1954 0.158059 -0.664856 
3.813 4.16 3.84 1.1919 1.3376 4.1307 0.1958 0.160650 -0.665513 
3.815 4.16 3.84 1.2087 1.3609 4.1331 0.1961 0.160650 -0.665809 
3.817 4.16 3.84 1.1925 1.2964 4.1357 0.1966 0.163241 -0.666095 
3.819 4.16 3.84 1.2550 1.3210 4.1382 0.1970 0.160650 -0.666284 
3.821 4.16 3.84 1.2069 1.3076 4.1408 0.1974 0.163241 -0.666535 
3.823 4.16 3.84 1.2361 1.2801 4.1432 0.1978 0.163241 -0.666514 
3.825 4.17 3.83 1.2405 1.3308 4.1458 0.1982 0.165832 -0.666141 
3.827 4.17 3.83 1.1852 1.3038 4.1481 0.1986 0.165832 -0.665973 
3.829 4.17 3.83 1.1606 1.3047 4.1503 0.1990 0.168423 -0.665838 
3.831 4.17 3.83 1.1649 1.3290 4.1529 0.1994 0.171014 -0.665420 
3.833 4.17 3.83 1.1581 1.2456 4.1553 0.1998 0.171014 -0.665231 
3.835 4.17 3.83 1.1791 1.3168 4.1578 0.2003 0.173605 -0.665115 
3.837 4.17 3.83 1.1866 1.2662 4.1602 0.2007 0.173605 -0.664925 
3.839 4.18 3.82 1.2116 1.2752 4.1628 0.2012 0.176196 -0.664909 
3.841 4.18 3.82 1.1780 1.2956 4.1651 0.2016 0.176196 -0.665114 
3.843 4.18 3.82 1.1938 1.3135 4.1677 0.2020 0.178788 -0.665274 
3.845 4.18 3.82 1.1821 1.3156 4.1701 0.2025 0.178788 -0.665616 
3.847 4.18 3.82 1.1963 1.2801 4.1727 0.2029 0.181379 -0.665917 
3.849 4.18 3.82 1.1793 1.2543 4.1750 0.2034 0.181379 -0.666113 
3.851 4.18 3.82 1.1977 1.2875 4.1774 0.2038 0.181379 -0.666214 
3.853 4.18 3.82 1.1994 1.2789 4.1800 0.2043 0.183970 -0.666486 
3.855 4.18 3.82 1.2107 1.3113 4.1823 0.2047 0.183970 -0.666486 
3.857 4.18 3.82 1.1687 1.2880 4.1847 0.2052 0.183970 -0.666595 
3.859 4.19 3.81 1.1896 1.2630 4.1873 0.2056 0.186561 -0.666648 
3.861 4.19 3.81 1.1742 1.3106 4.1896 0.2061 0.186561 -0.666640 
3.863 4.19 3.81 1.1893 1.2585 4.1922 0.2066 0.189152 -0.666561 
3.865 4.19 3.81 1.1822 1.2991 4.1946 0.2070 0.189152 -0.666405 
3.867 4.19 3.81 1.1991 1.2514 4.1969 0.2075 0.189152 -0.666229 
3.869 4.19 3.81 1.1985 1.2580 4.1995 0.2080 0.191743 -0.666149 
3.871 4.19 3.81 1.2211 1.2796 4.2019 0.2084 0.191743 -0.666183 
3.873 4.19 3.81 1.1730 1.3093 4.2042 0.2089 0.191743 -0.666062 
3.875 4.19 3.81 1.1891 1.3019 4.2068 0.2094 0.194334 -0.665893 
3.877 4.19 3.81 1.1774 1.2676 4.2092 0.2099 0.194334 -0.665518 
3.879 4.19 3.81 1.1882 1.2857 4.2115 0.2103 0.194334 -0.665381 
3.881 4.20 3.80 1.1709 1.2742 4.2141 0.2108 0.196926 -0.665047 
3.883 4.20 3.80 1.1906 1.2497 4.2164 0.2113 0.196926 -0.664279 
3.885 4.20 3.80 1.2000 1.3269 4.2188 0.2118 0.196926 -0.663930 
3.887 4.20 3.80 1.2221 1.2739 4.2214 0.2123 0.199517 -0.663630 
3.889 4.20 3.80 1.1822 1.2757 4.2237 0.2128 0.199517 -0.663406 
3.891 4.20 3.80 1.2032 1.2666 4.2261 0.2133 0.199517 -0.663440 
3.893 4.20 3.80 1.1914 1.2191 4.2286 0.2138 0.202108 -0.663760 
3.895 4.20 3.80 1.2014 1.3056 4.2310 0.2143 0.202108 -0.664154 
3.897 4.20 3.80 1.1917 1.2098 4.2334 0.2147 0.202108 -0.664740 
3.899 4.20 3.79 1.2095 1.2507 4.2359 0.2153 0.204699 -0.665211 
3.901 4.20 3.79 1.2121 1.2644 4.2383 0.2158 0.204699 -0.665668 
3.903 4.20 3.79 1.2306 1.2575 4.2406 0.2162 0.204699 -0.666072 
3.905 4.21 3.79 1.1865 1.3180 4.2432 0.2168 0.207290 -0.666526 
3.907 4.21 3.79 1.2011 1.2313 4.2456 0.2173 0.207290 -0.667104 
3.909 4.21 3.79 1.1873 1.2906 4.2479 0.2178 0.207290 -0.667142 
3.911 4.21 3.79 1.1919 1.2353 4.2503 0.2183 0.207290 -0.667162 
3.913 4.21 3.79 1.1720 1.2689 4.2528 0.2188 0.209881 -0.667392 
3.915 4.21 3.79 1.1894 1.2645 4.2552 0.2193 0.209881 -0.666602 
3.917 4.21 3.79 1.1877 1.2636 4.2575 0.2198 0.209881 -0.666027 
3.919 4.21 3.79 1.2013 1.2769 4.2601 0.2204 0.212472 -0.665568 
3.921 4.21 3.79 1.1598 1.2454 4.2625 0.2209 0.212472 -0.665046 
3.923 4.21 3.79 1.1832 1.2858 4.2648 0.2214 0.212472 -0.664867 
3.925 4.21 3.79 1.1733 1.2333 4.2672 0.2219 0.212472 -0.664941 
3.927 4.21 3.78 1.1889 1.2644 4.2697 0.2224 0.215063 -0.665101 
3.929 4.21 3.78 1.1822 1.2669 4.2721 0.2230 0.215063 -0.665288 
3.931 4.21 3.78 1.1999 1.3050 4.2744 0.2235 0.215063 -0.665417 
3.933 4.22 3.78 1.2011 1.2700 4.2770 0.2240 0.217655 -0.665688 
3.935 4.22 3.78 1.2200 1.2718 4.2793 0.2245 0.217655 -0.666239 
3.937 4.22 3.78 1.1760 1.3107 4.2819 0.2251 0.220246 -0.666907 
3.939 4.22 3.78 1.1955 1.2727 4.2842 0.2256 0.220246 -0.667482 
3.941 4.22 3.78 1.1791 1.2629 4.2868 0.2262 0.222837 -0.667816 
3.943 4.22 3.78 1.1878 1.3071 4.2891 0.2267 0.222837 -0.668438 
3.945 4.22 3.78 1.1728 1.2769 4.2915 0.2273 0.222837 -0.668642 
3.947 4.22 3.77 1.1853 1.2935 4.2940 0.2279 0.225428 -0.668206 
3.949 4.22 3.77 1.1844 1.3131 4.2964 0.2284 0.225428 -0.668126 
3.951 4.23 3.77 1.1996 1.2677 4.2989 0.2290 0.228019 -0.667555 
3.953 4.23 3.77 1.1542 1.3123 4.3013 0.2295 0.228019 -0.667136 
3.955 4.23 3.77 1.2069 1.2542 4.3034 0.2300 0.230610 -0.667192 
3.957 4.23 3.77 1.1827 1.2843 4.3059 0.2306 0.233201 -0.667092 
3.959 4.23 3.77 1.2022 1.2778 4.3083 0.2312 0.233201 -0.666903 
3.961 4.24 3.76 1.1767 1.2712 4.3108 0.2318 0.235793 -0.666703 
3.963 4.24 3.76 1.2037 1.2666 4.3132 0.2324 0.235793 -0.665990 
3.965 4.24 3.76 1.2171 1.2600 4.3155 0.2329 0.235793 -0.665515 
3.967 4.24 3.76 1.2483 1.2969 4.3181 0.2335 0.238384 -0.665121 
3.969 4.24 3.76 1.1714 1.2582 4.3204 0.2341 0.238384 -0.664764 
3.971 4.24 3.76 1.2130 1.2502 4.3229 0.2347 0.240975 -0.664347 
3.973 4.24 3.76 1.1814 1.2898 4.3253 0.2353 0.240975 -0.664069 
3.975 4.24 3.76 1.2075 1.2591 4.3276 0.2359 0.240975 -0.664074 
3.977 4.24 3.76 1.1862 1.2745 4.3301 0.2365 0.243566 -0.664347 
3.979 4.24 3.76 1.2161 1.3023 4.3325 0.2371 0.243566 -0.664421 
3.981 4.24 3.76 1.2338 1.3065 4.3348 0.2377 0.243566 -0.664614 
3.983 4.25 3.75 1.2793 1.3065 4.3374 0.2383 0.246157 -0.664775 
3.985 4.25 3.75 1.1963 1.2497 4.3397 0.2389 0.246157 -0.664853 
3.987 4.25 3.75 1.2430 1.2814 4.3420 0.2395 0.246157 -0.665129 
3.989 4.25 3.75 1.2093 1.2725 4.3446 0.2401 0.248748 -0.665219 
3.991 4.25 3.75 1.2268 1.3053 4.3469 0.2407 0.248748 -0.665174 
3.993 4.25 3.75 1.1969 1.2691 4.3494 0.2413 0.251339 -0.665271 
3.995 4.25 3.75 1.2271 1.2558 4.3518 0.2419 0.251339 -0.665341 
3.997 4.25 3.75 1.2383 1.3077 4.3541 0.2425 0.251339 -0.665240 
3.999 4.25 3.75 1.2728 1.2543 4.3566 0.2432 0.253930 -0.665074 
4.001 4.25 3.75 1.1909 1.2922 4.3590 0.2438 0.253930 -0.664768 
4.003 4.25 3.75 1.2329 1.2438 4.3613 0.2444 0.253930 -0.664257 
4.005 4.26 3.74 1.1951 1.2587 4.3638 0.2451 0.256522 -0.663693 
4.007 4.26 3.74 1.2231 1.2681 4.3661 0.2457 0.256522 -0.663482 
4.009 4.26 3.74 1.1989 1.2983 4.3685 0.2463 0.256522 -0.663496 
4.011 4.26 3.74 1.2259 1.2924 4.3710 0.2470 0.259113 -0.663165 
4.013 4.26 3.74 1.2404 1.2526 4.3733 0.2476 0.259113 -0.663200 
4.015 4.26 3.74 1.2846 1.2731 4.3757 0.2482 0.259113 -0.663269 
4.017 4.26 3.74 1.2035 1.2515 4.3782 0.2489 0.256522 -0.663360 
4.019 4.26 3.74 1.2164 1.2373 4.3807 0.2495 0.259113 -0.663688 
4.021 4.26 3.74 1.1985 1.3131 4.3830 0.2501 0.259113 -0.664033 
4.023 4.26 3.74 1.2126 1.2543 4.3854 0.2507 0.259113 -0.664351 
4.025 4.26 3.74 1.1987 1.2687 4.3877 0.2514 0.259113 -0.664872 
4.027 4.26 3.74 1.2141 1.2520 4.3902 0.2520 0.261704 -0.665581 
4.029 4.26 3.74 1.2177 1.2670 4.3925 0.2527 0.261704 -0.666063 
4.031 4.26 3.74 1.2302 1.2455 4.3949 0.2533 0.261704 -0.666329 
4.033 4.26 3.74 1.1829 1.2524 4.3972 0.2539 0.261704 -0.666306 
4.035 4.26 3.73 1.2043 1.2374 4.3997 0.2546 0.264295 -0.666239 
4.037 4.26 3.73 1.1768 1.2409 4.4020 0.2552 0.264295 -0.665846 
4.039 4.26 3.73 1.1940 1.2357 4.4044 0.2558 0.264295 -0.665674 
4.041 4.26 3.73 1.1872 1.2326 4.4067 0.2565 0.264295 -0.665592 
4.043 4.27 3.73 1.2021 1.2679 4.4092 0.2572 0.266886 -0.665269 
4.045 4.27 3.73 1.2114 1.2317 4.4115 0.2578 0.266886 -0.664833 
4.047 4.27 3.73 1.2272 1.2707 4.4139 0.2584 0.266886 -0.664410 
4.049 4.27 3.73 1.1763 1.2262 4.4162 0.2591 0.266886 -0.663808 
4.051 4.27 3.73 1.1949 1.2413 4.4185 0.2597 0.266886 -0.663530 
4.053 4.27 3.73 1.1826 1.2535 4.4210 0.2604 0.269477 -0.663472 
4.055 4.27 3.73 1.1968 1.2853 4.4234 0.2610 0.269477 -0.663383 
4.057 4.27 3.73 1.1894 1.3091 4.4257 0.2617 0.269477 -0.663266 
4.059 4.27 3.73 1.2101 1.2330 4.4284 0.2624 0.269477 -0.663294 
4.061 4.27 3.73 1.2185 1.2694 4.4307 0.2631 0.269477 -0.663450 
4.063 4.27 3.73 1.2627 1.2607 4.4330 0.2637 0.269477 -0.663573 
4.065 4.27 3.73 1.2776 1.2752 4.4354 0.2644 0.269477 -0.664275 
4.067 4.27 3.73 1.2309 1.3263 4.4379 0.2651 0.272068 -0.664560 
4.069 4.27 3.73 1.2656 1.2666 4.4402 0.2657 0.272068 -0.664673 
4.071 4.27 3.73 1.2237 1.2871 4.4425 0.2663 0.272068 -0.664969 
4.073 4.27 3.73 1.2807 1.2698 4.4450 0.2671 0.274660 -0.665095 
4.075 4.27 3.73 1.2434 1.2883 4.4475 0.2678 0.272068 -0.665108 
4.077 4.27 3.73 1.2036 1.3128 4.4501 0.2685 0.274660 -0.664970 
4.079 4.27 3.73 1.2177 1.2119 4.4524 0.2691 0.274660 -0.664782 
4.081 4.27 3.73 1.2145 1.2560 4.4547 0.2698 0.274660 -0.664500 
4.083 4.27 3.73 1.1873 1.2609 4.4570 0.2704 0.274660 -0.664589 
4.085 4.28 3.72 1.2035 1.2632 4.4595 0.2711 0.277251 -0.664795 
4.087 4.28 3.72 1.1806 1.2676 4.4618 0.2718 0.277251 -0.664546 
4.089 4.28 3.72 1.2030 1.2829 4.4642 0.2725 0.277251 -0.664419 
4.091 4.28 3.72 1.2042 1.2945 4.4667 0.2732 0.279842 -0.664403 
4.093 4.28 3.72 1.1837 1.2411 4.4690 0.2738 0.279842 -0.664026 
4.095 4.28 3.72 1.2012 1.2810 4.4713 0.2745 0.279842 -0.663964 
4.097 4.28 3.72 1.2061 1.2690 4.4738 0.2752 0.282433 -0.663899 
4.099 4.28 3.72 1.1869 1.2706 4.4761 0.2759 0.282433 -0.663712 
4.101 4.28 3.72 1.1991 1.2916 4.4784 0.2766 0.282433 -0.663500 
4.103 4.29 3.71 1.1842 1.2564 4.4809 0.2773 0.285024 -0.663654 
4.105 4.29 3.71 1.2166 1.2973 4.4833 0.2780 0.285024 -0.663814 
4.107 4.29 3.71 1.2135 1.2426 4.4856 0.2787 0.285024 -0.663826 
4.109 4.29 3.71 1.1969 1.2731 4.4881 0.2794 0.287615 -0.663974 
4.111 4.29 3.71 1.2177 1.2696 4.4904 0.2801 0.287615 -0.664451 
4.113 4.29 3.71 1.2167 1.3060 4.4927 0.2808 0.287615 -0.664639 
4.115 4.29 3.71 1.1946 1.2627 4.4952 0.2815 0.290206 -0.664937 
4.117 4.29 3.71 1.2175 1.2531 4.4975 0.2822 0.290206 -0.665365 
4.119 4.29 3.71 1.1932 1.2908 4.5000 0.2830 0.292797 -0.665338 
4.121 4.29 3.71 1.2216 1.2540 4.5023 0.2836 0.292797 -0.665157 
4.123 4.29 3.71 1.2193 1.2931 4.5046 0.2843 0.292797 -0.664924 
4.125 4.29 3.70 1.1955 1.2439 4.5071 0.2851 0.295389 -0.664429 
4.127 4.29 3.70 1.2050 1.2536 4.5094 0.2858 0.295389 -0.664227 
4.129 4.29 3.70 1.2086 1.2709 4.5117 0.2865 0.295389 -0.664251 
4.131 4.30 3.70 1.1881 1.2988 4.5142 0.2873 0.297980 -0.663986 
4.133 4.30 3.70 1.1972 1.2917 4.5165 0.2880 0.297980 -0.663557 
4.135 4.30 3.70 1.1832 1.2524 4.5188 0.2887 0.297980 -0.663247 
4.137 4.30 3.70 1.2173 1.2732 4.5211 0.2894 0.297980 -0.662904 
4.139 4.30 3.70 1.2133 1.2604 4.5236 0.2902 0.300571 -0.662391 
4.141 4.30 3.70 1.1989 1.2288 4.5261 0.2909 0.297980 -0.662097 
4.143 4.30 3.70 1.2480 1.3119 4.5284 0.2916 0.297980 -0.661869 
4.145 4.30 3.70 1.1992 1.2526 4.5307 0.2923 0.297980 -0.661786 
4.147 4.30 3.70 1.2560 1.2580 4.5332 0.2931 0.300571 -0.662011 
4.149 4.30 3.70 1.2073 1.2494 4.5355 0.2938 0.300571 -0.662441 
4.151 4.30 3.70 1.2506 1.2621 4.5378 0.2945 0.300571 -0.662609 
4.153 4.30 3.70 1.2399 1.2403 4.5401 0.2953 0.300571 -0.663058 
4.155 4.30 3.70 1.2590 1.2169 4.5424 0.2960 0.300571 -0.663512 
4.157 4.30 3.70 1.2270 1.2324 4.5451 0.2968 0.300571 -0.663623 
4.159 4.30 3.70 1.2395 1.2354 4.5474 0.2975 0.300571 -0.663685 
4.161 4.30 3.70 1.2070 1.2280 4.5497 0.2982 0.300571 -0.663744 
4.163 4.30 3.70 1.2318 1.2255 4.5520 0.2989 0.300571 -0.663795 
4.165 4.30 3.70 1.1927 1.2598 4.5545 0.2997 0.303162 -0.663638 
4.167 4.30 3.70 1.2133 1.2227 4.5568 0.3004 0.303162 -0.663691 
4.169 4.30 3.70 1.2121 1.2652 4.5591 0.3012 0.303162 -0.663699 
4.171 4.30 3.70 1.2519 1.2142 4.5616 0.3019 0.300571 -0.663449 
4.173 4.30 3.70 1.2938 1.2313 4.5639 0.3026 0.300571 -0.663257 
4.175 4.30 3.70 1.2107 1.2397 4.5662 0.3034 0.300571 -0.662901 
4.177 4.30 3.70 1.2519 1.2722 4.5687 0.3041 0.303162 -0.662380 
4.179 4.30 3.70 1.2205 1.2886 4.5710 0.3049 0.303162 -0.662323 
4.181 4.30 3.70 1.2493 1.2097 4.5733 0.3056 0.303162 -0.662404 
4.183 4.30 3.70 1.2256 1.2594 4.5756 0.3063 0.303162 -0.662101 
4.185 4.30 3.70 1.2183 1.2077 4.5781 0.3071 0.300571 -0.662010 
4.187 4.30 3.70 1.2431 1.2480 4.5804 0.3078 0.300571 -0.661917 
4.189 4.30 3.70 1.2647 1.2206 4.5827 0.3085 0.300571 -0.661800 
4.191 4.30 3.70 1.2232 1.2331 4.5852 0.3093 0.303162 -0.661844 
4.193 4.30 3.70 1.2543 1.2567 4.5877 0.3101 0.300571 -0.662119 
4.195 4.30 3.70 1.2972 1.2594 4.5900 0.3108 0.300571 -0.662439 
4.197 4.30 3.70 1.2501 1.2266 4.5923 0.3115 0.300571 -0.662720 
4.199 4.30 3.70 1.3037 1.2460 4.5946 0.3122 0.300571 -0.663020 
4.201 4.30 3.70 1.2552 1.2261 4.5973 0.3130 0.300571 -0.663446 
4.203 4.30 3.70 1.2273 1.2147 4.5996 0.3137 0.300571 -0.663585 
4.205 4.30 3.70 1.2367 1.2921 4.6019 0.3145 0.300571 -0.663586 
4.207 4.30 3.70 1.2368 1.2431 4.6042 0.3152 0.300571 -0.663493 
4.209 4.30 3.70 1.2087 1.2596 4.6065 0.3159 0.300571 -0.663113 
4.211 4.30 3.70 1.2290 1.2328 4.6088 0.3166 0.300571 -0.663343 
4.213 4.30 3.70 1.2075 1.2596 4.6113 0.3174 0.303162 -0.663406 
4.215 4.30 3.70 1.2276 1.2404 4.6138 0.3181 0.300571 -0.662933 
4.217 4.30 3.70 1.2442 1.2464 4.6161 0.3189 0.300571 -0.662598 
4.219 4.30 3.70 1.2133 1.2410 4.6184 0.3196 0.300571 -0.662043 
4.221 4.30 3.70 1.2449 1.2742 4.6207 0.3203 0.300571 -0.661222 
4.223 4.30 3.70 1.2020 1.2297 4.6232 0.3211 0.303162 -0.660608 
4.225 4.30 3.70 1.2534 1.2258 4.6255 0.3218 0.303162 -0.660136 
4.227 4.30 3.70 1.1906 1.2750 4.6278 0.3225 0.303162 -0.659757 
4.229 4.30 3.70 1.2344 1.1959 4.6301 0.3232 0.303162 -0.659612 
4.231 4.30 3.69 1.2239 1.2687 4.6326 0.3240 0.305753 -0.659735 
4.233 4.30 3.69 1.2440 1.2250 4.6349 0.3247 0.305753 -0.659663 
4.235 4.30 3.69 1.2305 1.2512 4.6372 0.3255 0.305753 -0.659847 
4.237 4.30 3.70 1.2368 1.2601 4.6397 0.3262 0.303162 -0.660222 
4.239 4.30 3.69 1.2113 1.2980 4.6421 0.3270 0.305753 -0.660469 
4.241 4.30 3.69 1.2397 1.3151 4.6444 0.3277 0.305753 -0.660721 
4.243 4.30 3.69 1.2126 1.2352 4.6467 0.3285 0.305753 -0.661125 
4.245 4.30 3.69 1.2288 1.2851 4.6490 0.3292 0.305753 -0.661145 
4.247 4.30 3.69 1.2563 1.2505 4.6517 0.3300 0.305753 -0.660977 
4.249 4.30 3.69 1.2654 1.2639 4.6540 0.3308 0.305753 -0.660835 
4.251 4.30 3.69 1.3051 1.2558 4.6563 0.3315 0.305753 -0.660679 
4.253 4.30 3.69 1.2067 1.2582 4.6586 0.3322 0.305753 -0.660347 
4.255 4.31 3.69 1.2483 1.2679 4.6611 0.3330 0.308344 -0.660207 
4.257 4.31 3.69 1.2140 1.2365 4.6634 0.3337 0.308344 -0.660109 
4.259 4.31 3.69 1.2302 1.2769 4.6657 0.3345 0.308344 -0.659719 
4.261 4.31 3.69 1.2078 1.2214 4.6680 0.3352 0.308344 -0.659425 
4.263 4.31 3.69 1.2403 1.2485 4.6705 0.3360 0.310935 -0.659336 
4.265 4.31 3.69 1.2228 1.2434 4.6730 0.3368 0.308344 -0.658961 
4.267 4.31 3.69 1.2487 1.2766 4.6753 0.3375 0.308344 -0.658503 
4.269 4.31 3.69 1.2108 1.2507 4.6776 0.3383 0.308344 -0.658222 
4.271 4.31 3.69 1.2302 1.2265 4.6801 0.3391 0.310935 -0.658013 
4.273 4.31 3.69 1.2149 1.2756 4.6823 0.3398 0.310935 -0.657933 
4.275 4.31 3.69 1.2274 1.1966 4.6846 0.3405 0.310935 -0.658032 
4.277 4.31 3.69 1.2889 1.2812 4.6871 0.3413 0.308344 -0.657957 
4.279 4.31 3.69 1.2759 1.1860 4.6894 0.3421 0.308344 -0.657970 
4.281 4.31 3.69 1.2384 1.2281 4.6917 0.3428 0.308344 -0.658300 
4.283 4.31 3.69 1.2786 1.2416 4.6942 0.3436 0.310935 -0.658565 
4.285 4.31 3.69 1.2843 1.2335 4.6965 0.3443 0.310935 -0.659043 
4.287 4.31 3.69 1.2167 1.2386 4.6990 0.3451 0.308344 -0.659656 
4.289 4.31 3.69 1.2371 1.2569 4.7013 0.3458 0.308344 -0.660155 
4.291 4.31 3.69 1.2128 1.2248 4.7038 0.3466 0.310935 -0.659931 
4.293 4.31 3.69 1.2400 1.2119 4.7061 0.3474 0.310935 -0.659804 
4.295 4.31 3.69 1.2370 1.2528 4.7084 0.3481 0.310935 -0.659402 
4.297 4.31 3.69 1.2121 1.2262 4.7107 0.3488 0.310935 -0.658844 
4.299 4.31 3.69 1.2645 1.2422 4.7131 0.3496 0.308344 -0.658885 
4.301 4.31 3.69 1.2174 1.2706 4.7154 0.3504 0.308344 -0.658742 
4.303 4.31 3.69 1.2697 1.2648 4.7179 0.3512 0.310935 -0.658221 
4.305 4.31 3.69 1.2108 1.2258 4.7202 0.3519 0.310935 -0.657900 
4.307 4.31 3.69 1.2552 1.2476 4.7225 0.3526 0.310935 -0.657397 
4.309 4.31 3.69 1.2434 1.2258 4.7248 0.3534 0.310935 -0.656621 
4.311 4.31 3.69 1.2613 1.2394 4.7273 0.3542 0.308344 -0.656129 
4.313 4.31 3.69 1.2309 1.2322 4.7296 0.3549 0.308344 -0.655799 
4.315 4.31 3.69 1.2432 1.2344 4.7319 0.3556 0.308344 -0.655436 
4.317 4.31 3.69 1.2242 1.2431 4.7344 0.3564 0.310935 -0.655419 
4.319 4.31 3.69 1.2544 1.2171 4.7369 0.3572 0.308344 -0.655728 
4.321 4.31 3.69 1.2776 1.2484 4.7392 0.3580 0.308344 -0.655912 
4.323 4.31 3.69 1.2558 1.2011 4.7415 0.3587 0.308344 -0.656424 
4.325 4.31 3.69 1.2861 1.2298 4.7438 0.3594 0.308344 -0.656905 
4.327 4.30 3.69 1.2696 1.2086 4.7462 0.3602 0.305753 -0.657345 
4.329 4.30 3.69 1.2934 1.2814 4.7485 0.3609 0.305753 -0.657639 
4.331 4.30 3.70 1.3273 1.2262 4.7510 0.3617 0.303162 -0.658013 
4.333 4.30 3.70 1.2746 1.2410 4.7533 0.3624 0.303162 -0.658051 
4.335 4.30 3.69 1.3126 1.2260 4.7558 0.3632 0.305753 -0.657893 
4.337 4.30 3.69 1.2607 1.2377 4.7581 0.3640 0.305753 -0.657816 
4.339 4.30 3.70 1.2703 1.2105 4.7606 0.3647 0.303162 -0.657882 
4.341 4.30 3.70 1.2605 1.2255 4.7629 0.3655 0.303162 -0.657638 
4.343 4.30 3.70 1.2419 1.2200 4.7652 0.3662 0.303162 -0.657454 
4.345 4.30 3.70 1.2923 1.2524 4.7677 0.3669 0.300571 -0.657302 
4.347 4.30 3.70 1.2396 1.2283 4.7700 0.3677 0.300571 -0.656838 
4.349 4.30 3.70 1.2907 1.2317 4.7723 0.3684 0.300571 -0.656546 
4.351 4.30 3.70 1.2337 1.2243 4.7748 0.3691 0.303162 -0.656665 
4.353 4.30 3.70 1.2388 1.1320 4.7773 0.3699 0.300571 -0.656558 
4.355 4.30 3.70 1.2335 1.2601 4.7796 0.3706 0.300571 -0.656773 
4.357 4.30 3.70 1.2470 1.1671 4.7819 0.3713 0.300571 -0.656967 
4.359 4.30 3.70 1.2389 1.2095 4.7844 0.3721 0.297980 -0.656867 
4.361 4.30 3.70 1.2465 1.2128 4.7867 0.3728 0.297980 -0.657208 
4.363 4.30 3.70 1.2939 1.2108 4.7890 0.3735 0.297980 -0.657482 
4.365 4.30 3.70 1.2576 1.2079 4.7913 0.3742 0.297980 -0.657646 
4.367 4.29 3.70 1.2552 1.2553 4.7938 0.3750 0.295389 -0.658065 
4.369 4.29 3.70 1.2388 1.1817 4.7961 0.3757 0.295389 -0.658596 
4.371 4.30 3.70 1.2510 1.2391 4.7986 0.3765 0.297980 -0.658747 
